"File_240203_032819 - RawData"
"Wavelength nm.","Abs."
200.00,0.238
201.00,0.200
202.00,0.158
203.00,0.181
204.00,0.201
205.00,0.232
206.00,0.127
207.00,0.163
208.00,0.215
209.00,0.150
210.00,0.151
211.00,0.235
212.00,0.180
213.00,0.166
214.00,0.175
215.00,0.182
216.00,0.101
217.00,0.143
218.00,0.266
219.00,0.273
220.00,0.255
221.00,0.215
222.00,0.188
223.00,0.167
224.00,0.151
225.00,0.137
226.00,0.127
227.00,0.119
228.00,0.110
229.00,0.105
230.00,0.104
231.00,0.104
232.00,0.104
233.00,0.107
234.00,0.113
235.00,0.119
236.00,0.128
237.00,0.138
238.00,0.148
239.00,0.159
240.00,0.170
241.00,0.181
242.00,0.193
243.00,0.205
244.00,0.217
245.00,0.229
246.00,0.241
247.00,0.254
248.00,0.267
249.00,0.278
250.00,0.291
251.00,0.303
252.00,0.316
253.00,0.330
254.00,0.342
255.00,0.354
256.00,0.363
257.00,0.372
258.00,0.381
259.00,0.388
260.00,0.394
261.00,0.402
262.00,0.406
263.00,0.405
264.00,0.404
265.00,0.401
266.00,0.397
267.00,0.393
268.00,0.396
269.00,0.389
270.00,0.374
271.00,0.359
272.00,0.346
273.00,0.334
274.00,0.319
275.00,0.306
276.00,0.292
277.00,0.280
278.00,0.266
279.00,0.252
280.00,0.239
281.00,0.225
282.00,0.212
283.00,0.199
284.00,0.187
285.00,0.177
286.00,0.166
287.00,0.155
288.00,0.146
289.00,0.136
290.00,0.126
291.00,0.116
292.00,0.107
293.00,0.099
294.00,0.091
295.00,0.085
296.00,0.078
297.00,0.072
298.00,0.067
299.00,0.063
300.00,0.059
301.00,0.055
302.00,0.052
303.00,0.049
304.00,0.047
305.00,0.044
306.00,0.042
307.00,0.040
308.00,0.038
309.00,0.036
310.00,0.036
311.00,0.034
312.00,0.033
313.00,0.032
314.00,0.031
315.00,0.030
316.00,0.029
317.00,0.028
318.00,0.028
319.00,0.028
320.00,0.027
321.00,0.026
322.00,0.027
323.00,0.026
324.00,0.026
325.00,0.026
326.00,0.025
327.00,0.025
328.00,0.024
329.00,0.022
330.00,0.023
331.00,0.022
332.00,0.021
333.00,0.021
334.00,0.021
335.00,0.020
336.00,0.020
337.00,0.018
338.00,0.017
339.00,0.017
340.00,0.017
341.00,0.015
342.00,0.014
343.00,0.014
344.00,0.014
345.00,0.014
346.00,0.013
347.00,0.013
348.00,0.012
349.00,0.011
350.00,0.010
351.00,0.009
352.00,0.010
353.00,0.010
354.00,0.010
355.00,0.009
356.00,0.009
357.00,0.008
358.00,0.008
359.00,0.007
360.00,0.007
361.00,0.007
362.00,0.007
363.00,0.007
364.00,0.006
365.00,0.005
366.00,0.007
367.00,0.005
368.00,0.005
369.00,0.006
370.00,0.006
371.00,0.006
372.00,0.005
373.00,0.006
374.00,0.005
375.00,0.005
376.00,0.002
377.00,0.004
378.00,0.008
379.00,0.004
380.00,0.004
381.00,0.003
382.00,0.004
383.00,0.004
384.00,0.003
385.00,0.003
386.00,0.004
387.00,0.004
388.00,0.002
389.00,0.003
390.00,0.005
391.00,0.001
392.00,0.004
393.00,0.004
394.00,0.003
395.00,0.004
396.00,0.002
397.00,0.002
398.00,0.002
399.00,0.004
400.00,0.002
401.00,0.002
402.00,0.002
403.00,0.001
404.00,0.002
405.00,0.001
406.00,0.002
407.00,0.002
408.00,0.001
409.00,-0.000
410.00,0.001
411.00,0.001
412.00,0.001
413.00,0.002
414.00,0.000
415.00,0.001
416.00,0.002
417.00,0.001
418.00,0.001
419.00,0.000
420.00,0.001
421.00,-0.001
422.00,0.000
423.00,0.000
424.00,0.001
425.00,-0.000
426.00,-0.000
427.00,-0.000
428.00,-0.000
429.00,0.000
430.00,-0.001
431.00,0.000
432.00,-0.000
433.00,0.000
434.00,-0.000
435.00,-0.000
436.00,-0.000
437.00,-0.001
438.00,-0.001
439.00,-0.001
440.00,-0.001
441.00,-0.001
442.00,-0.001
443.00,-0.001
444.00,-0.001
445.00,-0.001
446.00,-0.001
447.00,-0.001
448.00,-0.001
449.00,-0.001
450.00,-0.001
451.00,-0.002
452.00,-0.001
453.00,-0.001
454.00,-0.001
455.00,-0.001
456.00,-0.001
457.00,-0.001
458.00,-0.001
459.00,-0.002
460.00,-0.001
461.00,-0.001
462.00,-0.001
463.00,-0.001
464.00,-0.001
465.00,-0.002
466.00,-0.001
467.00,-0.002
468.00,-0.002
469.00,-0.001
470.00,-0.001
471.00,-0.001
472.00,-0.001
473.00,-0.001
474.00,-0.001
475.00,-0.001
476.00,-0.001
477.00,-0.001
478.00,-0.001
479.00,-0.001
480.00,-0.001
481.00,-0.001
482.00,-0.002
483.00,-0.001
484.00,-0.002
485.00,-0.001
486.00,-0.001
487.00,-0.001
488.00,-0.001
489.00,-0.001
490.00,-0.002
491.00,-0.001
492.00,-0.001
493.00,-0.001
494.00,-0.001
495.00,-0.001
496.00,-0.001
497.00,-0.001
498.00,-0.001
499.00,-0.001
500.00,-0.001
501.00,-0.001
502.00,-0.001
503.00,-0.002
504.00,-0.001
505.00,-0.001
506.00,-0.001
507.00,-0.001
508.00,-0.001
509.00,-0.002
510.00,-0.002
511.00,-0.001
512.00,-0.001
513.00,-0.001
514.00,-0.001
515.00,-0.001
516.00,-0.002
517.00,-0.002
518.00,-0.001
519.00,-0.001
520.00,-0.001
521.00,-0.001
522.00,-0.001
523.00,-0.001
524.00,-0.001
525.00,-0.001
526.00,-0.001
527.00,-0.001
528.00,-0.001
529.00,-0.001
530.00,-0.001
531.00,-0.001
532.00,-0.002
533.00,-0.001
534.00,-0.002
535.00,-0.001
536.00,-0.001
537.00,-0.001
538.00,-0.001
539.00,-0.001
540.00,-0.001
541.00,-0.001
542.00,-0.001
543.00,-0.001
544.00,-0.001
545.00,-0.001
546.00,-0.001
547.00,-0.001
548.00,-0.001
549.00,-0.001
550.00,-0.001
551.00,-0.001
552.00,-0.001
553.00,-0.001
554.00,-0.001
555.00,-0.001
556.00,-0.001
557.00,-0.001
558.00,-0.001
559.00,-0.001
560.00,-0.001
561.00,-0.001
562.00,-0.001
563.00,-0.001
564.00,-0.001
565.00,-0.001
566.00,-0.001
567.00,-0.001
568.00,-0.001
569.00,-0.001
570.00,-0.001
571.00,-0.001
572.00,-0.001
573.00,-0.001
574.00,-0.001
575.00,-0.001
576.00,-0.001
577.00,-0.001
578.00,-0.001
579.00,-0.001
580.00,-0.001
581.00,-0.001
582.00,-0.001
583.00,-0.001
584.00,-0.001
585.00,-0.001
586.00,-0.001
587.00,-0.001
588.00,-0.001
589.00,-0.001
590.00,-0.001
591.00,-0.001
592.00,-0.001
593.00,-0.001
594.00,-0.001
595.00,-0.001
596.00,-0.001
597.00,-0.001
598.00,-0.001
599.00,-0.001
600.00,-0.001
601.00,-0.001
602.00,-0.001
603.00,-0.001
604.00,-0.001
605.00,-0.001
606.00,-0.001
607.00,-0.001
608.00,-0.001
609.00,-0.001
610.00,-0.001
611.00,-0.001
612.00,-0.001
613.00,-0.001
614.00,-0.001
615.00,-0.001
616.00,-0.001
617.00,-0.001
618.00,-0.001
619.00,-0.001
620.00,-0.001
621.00,-0.001
622.00,-0.001
623.00,-0.001
624.00,-0.001
625.00,-0.001
626.00,-0.001
627.00,-0.001
628.00,-0.001
629.00,-0.001
630.00,-0.001
631.00,-0.001
632.00,-0.001
633.00,-0.001
634.00,-0.001
635.00,-0.001
636.00,-0.001
637.00,-0.001
638.00,-0.001
639.00,-0.001
640.00,-0.001
641.00,-0.001
642.00,-0.001
643.00,-0.001
644.00,-0.001
645.00,-0.001
646.00,-0.001
647.00,-0.001
648.00,-0.001
649.00,-0.001
650.00,-0.001
651.00,-0.001
652.00,-0.001
653.00,-0.001
654.00,-0.001
655.00,-0.001
656.00,-0.001
657.00,-0.001
658.00,-0.001
659.00,-0.001
660.00,-0.001
661.00,-0.001
662.00,-0.001
663.00,-0.001
664.00,-0.001
665.00,-0.001
666.00,-0.001
667.00,-0.001
668.00,-0.001
669.00,-0.000
670.00,-0.000
671.00,-0.000
672.00,-0.000
673.00,-0.000
674.00,-0.000
675.00,-0.000
676.00,-0.001
677.00,-0.000
678.00,-0.001
679.00,-0.000
680.00,-0.000
681.00,-0.000
682.00,-0.001
683.00,-0.001
684.00,-0.000
685.00,-0.001
686.00,-0.000
687.00,-0.001
688.00,-0.001
689.00,-0.001
690.00,-0.001
691.00,-0.000
692.00,-0.001
693.00,-0.000
694.00,-0.001
695.00,-0.001
696.00,-0.000
697.00,-0.000
698.00,-0.000
699.00,-0.000
700.00,-0.001
701.00,-0.000
702.00,-0.000
703.00,-0.000
704.00,-0.001
705.00,-0.000
706.00,-0.000
707.00,-0.000
708.00,-0.000
709.00,-0.000
710.00,-0.001
711.00,-0.000
712.00,-0.000
713.00,-0.001
714.00,-0.000
715.00,-0.001
716.00,-0.001
717.00,-0.000
718.00,-0.000
719.00,-0.000
720.00,-0.000
721.00,-0.000
722.00,-0.000
723.00,-0.000
724.00,-0.000
725.00,-0.000
726.00,-0.000
727.00,-0.000
728.00,-0.000
729.00,-0.000
730.00,-0.000
731.00,-0.000
732.00,-0.000
733.00,-0.000
734.00,-0.000
735.00,-0.000
736.00,-0.000
737.00,-0.000
738.00,-0.000
739.00,-0.000
740.00,-0.000
741.00,-0.000
742.00,-0.000
743.00,-0.000
744.00,-0.000
745.00,-0.000
746.00,-0.000
747.00,-0.000
748.00,-0.000
749.00,-0.000
750.00,-0.000
751.00,-0.001
752.00,-0.000
753.00,-0.000
754.00,-0.000
755.00,-0.000
756.00,-0.000
757.00,-0.000
758.00,-0.000
759.00,-0.000
760.00,-0.000
761.00,-0.000
762.00,-0.000
763.00,-0.000
764.00,-0.000
765.00,-0.000
766.00,-0.000
767.00,-0.000
768.00,-0.000
769.00,-0.000
770.00,-0.000
771.00,-0.000
772.00,-0.000
773.00,-0.000
774.00,-0.000
775.00,-0.000
776.00,-0.000
777.00,-0.000
778.00,-0.000
779.00,-0.000
780.00,-0.000
781.00,-0.000
782.00,-0.000
783.00,-0.000
784.00,0.000
785.00,-0.000
786.00,0.000
787.00,-0.000
788.00,0.000
789.00,-0.000
790.00,0.000
791.00,0.000
792.00,-0.000
793.00,-0.000
794.00,-0.000
795.00,0.000
796.00,0.000
797.00,0.000
798.00,-0.000
799.00,0.000
800.00,0.000
