"File_240203_033645 - RawData"
"Wavelength nm.","Abs."
200.00,0.242
201.00,0.218
202.00,0.100
203.00,0.119
204.00,0.160
205.00,0.214
206.00,0.164
207.00,0.153
208.00,0.159
209.00,0.145
210.00,0.161
211.00,0.233
212.00,0.170
213.00,0.218
214.00,0.177
215.00,0.227
216.00,0.178
217.00,0.177
218.00,0.308
219.00,0.481
220.00,0.559
221.00,0.579
222.00,0.589
223.00,0.586
224.00,0.594
225.00,0.588
226.00,0.588
227.00,0.585
228.00,0.571
229.00,0.568
230.00,0.553
231.00,0.540
232.00,0.525
233.00,0.508
234.00,0.490
235.00,0.470
236.00,0.450
237.00,0.430
238.00,0.409
239.00,0.388
240.00,0.366
241.00,0.346
242.00,0.325
243.00,0.306
244.00,0.285
245.00,0.266
246.00,0.247
247.00,0.230
248.00,0.212
249.00,0.195
250.00,0.179
251.00,0.164
252.00,0.148
253.00,0.134
254.00,0.118
255.00,0.106
256.00,0.094
257.00,0.084
258.00,0.075
259.00,0.068
260.00,0.060
261.00,0.055
262.00,0.049
263.00,0.046
264.00,0.043
265.00,0.039
266.00,0.035
267.00,0.031
268.00,0.029
269.00,0.026
270.00,0.024
271.00,0.021
272.00,0.017
273.00,0.015
274.00,0.012
275.00,0.010
276.00,0.006
277.00,0.005
278.00,0.003
279.00,-0.000
280.00,-0.001
281.00,-0.003
282.00,-0.005
283.00,-0.006
284.00,-0.007
285.00,-0.007
286.00,-0.008
287.00,-0.009
288.00,-0.009
289.00,-0.009
290.00,-0.010
291.00,-0.010
292.00,-0.010
293.00,-0.010
294.00,-0.010
295.00,-0.010
296.00,-0.011
297.00,-0.011
298.00,-0.012
299.00,-0.012
300.00,-0.012
301.00,-0.012
302.00,-0.012
303.00,-0.012
304.00,-0.012
305.00,-0.012
306.00,-0.012
307.00,-0.012
308.00,-0.012
309.00,-0.011
310.00,-0.011
311.00,-0.011
312.00,-0.011
313.00,-0.011
314.00,-0.010
315.00,-0.010
316.00,-0.010
317.00,-0.009
318.00,-0.008
319.00,-0.008
320.00,-0.008
321.00,-0.008
322.00,-0.007
323.00,-0.006
324.00,-0.006
325.00,-0.005
326.00,-0.005
327.00,-0.006
328.00,-0.004
329.00,-0.005
330.00,-0.004
331.00,-0.005
332.00,-0.004
333.00,-0.004
334.00,-0.004
335.00,-0.004
336.00,-0.004
337.00,-0.004
338.00,-0.004
339.00,-0.003
340.00,-0.003
341.00,-0.004
342.00,-0.004
343.00,-0.005
344.00,-0.004
345.00,-0.003
346.00,-0.003
347.00,-0.004
348.00,-0.003
349.00,-0.004
350.00,-0.004
351.00,-0.005
352.00,-0.003
353.00,-0.004
354.00,-0.003
355.00,-0.004
356.00,-0.003
357.00,-0.003
358.00,-0.005
359.00,-0.004
360.00,-0.004
361.00,-0.004
362.00,-0.004
363.00,-0.004
364.00,-0.004
365.00,-0.005
366.00,-0.003
367.00,-0.004
368.00,-0.004
369.00,-0.003
370.00,-0.003
371.00,-0.003
372.00,-0.005
373.00,-0.003
374.00,-0.004
375.00,-0.005
376.00,-0.007
377.00,0.001
378.00,-0.001
379.00,-0.005
380.00,-0.001
381.00,-0.004
382.00,-0.003
383.00,-0.002
384.00,-0.001
385.00,-0.003
386.00,-0.000
387.00,-0.003
388.00,-0.005
389.00,-0.003
390.00,-0.003
391.00,-0.006
392.00,-0.003
393.00,-0.003
394.00,-0.003
395.00,-0.003
396.00,-0.004
397.00,-0.003
398.00,-0.004
399.00,-0.003
400.00,-0.004
401.00,-0.003
402.00,-0.003
403.00,-0.004
404.00,-0.003
405.00,-0.004
406.00,-0.002
407.00,-0.003
408.00,-0.003
409.00,-0.006
410.00,-0.003
411.00,-0.004
412.00,-0.004
413.00,-0.002
414.00,-0.003
415.00,-0.002
416.00,-0.003
417.00,-0.003
418.00,-0.002
419.00,-0.003
420.00,-0.003
421.00,-0.004
422.00,-0.002
423.00,-0.003
424.00,-0.003
425.00,-0.004
426.00,-0.003
427.00,-0.003
428.00,-0.004
429.00,-0.003
430.00,-0.004
431.00,-0.004
432.00,-0.003
433.00,-0.002
434.00,-0.003
435.00,-0.002
436.00,-0.002
437.00,-0.003
438.00,-0.003
439.00,-0.002
440.00,-0.003
441.00,-0.002
442.00,-0.003
443.00,-0.003
444.00,-0.002
445.00,-0.003
446.00,-0.003
447.00,-0.003
448.00,-0.003
449.00,-0.003
450.00,-0.003
451.00,-0.003
452.00,-0.003
453.00,-0.003
454.00,-0.002
455.00,-0.003
456.00,-0.003
457.00,-0.003
458.00,-0.003
459.00,-0.003
460.00,-0.003
461.00,-0.003
462.00,-0.002
463.00,-0.003
464.00,-0.003
465.00,-0.003
466.00,-0.003
467.00,-0.003
468.00,-0.003
469.00,-0.003
470.00,-0.002
471.00,-0.003
472.00,-0.003
473.00,-0.003
474.00,-0.002
475.00,-0.002
476.00,-0.003
477.00,-0.003
478.00,-0.002
479.00,-0.002
480.00,-0.003
481.00,-0.002
482.00,-0.003
483.00,-0.002
484.00,-0.003
485.00,-0.002
486.00,-0.002
487.00,-0.002
488.00,-0.003
489.00,-0.003
490.00,-0.003
491.00,-0.002
492.00,-0.002
493.00,-0.003
494.00,-0.002
495.00,-0.003
496.00,-0.002
497.00,-0.002
498.00,-0.002
499.00,-0.002
500.00,-0.002
501.00,-0.002
502.00,-0.002
503.00,-0.002
504.00,-0.002
505.00,-0.002
506.00,-0.003
507.00,-0.002
508.00,-0.002
509.00,-0.002
510.00,-0.002
511.00,-0.002
512.00,-0.002
513.00,-0.002
514.00,-0.002
515.00,-0.002
516.00,-0.002
517.00,-0.003
518.00,-0.002
519.00,-0.002
520.00,-0.002
521.00,-0.002
522.00,-0.002
523.00,-0.002
524.00,-0.002
525.00,-0.002
526.00,-0.002
527.00,-0.002
528.00,-0.002
529.00,-0.002
530.00,-0.002
531.00,-0.002
532.00,-0.002
533.00,-0.002
534.00,-0.002
535.00,-0.002
536.00,-0.002
537.00,-0.002
538.00,-0.002
539.00,-0.002
540.00,-0.002
541.00,-0.002
542.00,-0.002
543.00,-0.002
544.00,-0.002
545.00,-0.002
546.00,-0.002
547.00,-0.002
548.00,-0.002
549.00,-0.002
550.00,-0.002
551.00,-0.002
552.00,-0.002
553.00,-0.002
554.00,-0.002
555.00,-0.002
556.00,-0.002
557.00,-0.002
558.00,-0.002
559.00,-0.002
560.00,-0.002
561.00,-0.002
562.00,-0.002
563.00,-0.002
564.00,-0.002
565.00,-0.002
566.00,-0.002
567.00,-0.002
568.00,-0.002
569.00,-0.002
570.00,-0.002
571.00,-0.002
572.00,-0.002
573.00,-0.002
574.00,-0.002
575.00,-0.002
576.00,-0.002
577.00,-0.002
578.00,-0.002
579.00,-0.002
580.00,-0.002
581.00,-0.002
582.00,-0.002
583.00,-0.002
584.00,-0.002
585.00,-0.002
586.00,-0.002
587.00,-0.002
588.00,-0.002
589.00,-0.002
590.00,-0.002
591.00,-0.002
592.00,-0.002
593.00,-0.002
594.00,-0.002
595.00,-0.002
596.00,-0.002
597.00,-0.002
598.00,-0.002
599.00,-0.002
600.00,-0.002
601.00,-0.002
602.00,-0.001
603.00,-0.002
604.00,-0.002
605.00,-0.002
606.00,-0.002
607.00,-0.002
608.00,-0.002
609.00,-0.002
610.00,-0.002
611.00,-0.002
612.00,-0.002
613.00,-0.002
614.00,-0.002
615.00,-0.001
616.00,-0.002
617.00,-0.002
618.00,-0.002
619.00,-0.002
620.00,-0.002
621.00,-0.001
622.00,-0.002
623.00,-0.002
624.00,-0.002
625.00,-0.002
626.00,-0.002
627.00,-0.002
628.00,-0.002
629.00,-0.002
630.00,-0.001
631.00,-0.002
632.00,-0.002
633.00,-0.002
634.00,-0.002
635.00,-0.002
636.00,-0.002
637.00,-0.001
638.00,-0.001
639.00,-0.002
640.00,-0.002
641.00,-0.001
642.00,-0.002
643.00,-0.001
644.00,-0.002
645.00,-0.001
646.00,-0.002
647.00,-0.001
648.00,-0.002
649.00,-0.002
650.00,-0.001
651.00,-0.001
652.00,-0.001
653.00,-0.001
654.00,-0.002
655.00,-0.001
656.00,-0.001
657.00,-0.001
658.00,-0.002
659.00,-0.002
660.00,-0.002
661.00,-0.002
662.00,-0.001
663.00,-0.001
664.00,-0.001
665.00,-0.001
666.00,-0.001
667.00,-0.001
668.00,-0.001
669.00,-0.001
670.00,-0.001
671.00,-0.001
672.00,-0.001
673.00,-0.001
674.00,-0.001
675.00,-0.001
676.00,-0.001
677.00,-0.001
678.00,-0.001
679.00,-0.001
680.00,-0.001
681.00,-0.001
682.00,-0.001
683.00,-0.001
684.00,-0.001
685.00,-0.001
686.00,-0.001
687.00,-0.001
688.00,-0.001
689.00,-0.001
690.00,-0.001
691.00,-0.001
692.00,-0.001
693.00,-0.001
694.00,-0.001
695.00,-0.001
696.00,-0.001
697.00,-0.001
698.00,-0.001
699.00,-0.001
700.00,-0.001
701.00,-0.001
702.00,-0.001
703.00,-0.001
704.00,-0.001
705.00,-0.001
706.00,-0.001
707.00,-0.001
708.00,-0.001
709.00,-0.001
710.00,-0.001
711.00,-0.001
712.00,-0.001
713.00,-0.001
714.00,-0.001
715.00,-0.001
716.00,-0.001
717.00,-0.001
718.00,-0.001
719.00,-0.001
720.00,-0.001
721.00,-0.001
722.00,-0.001
723.00,-0.001
724.00,-0.001
725.00,-0.001
726.00,-0.001
727.00,-0.001
728.00,-0.001
729.00,-0.001
730.00,-0.001
731.00,-0.001
732.00,-0.001
733.00,-0.001
734.00,-0.001
735.00,-0.001
736.00,-0.001
737.00,-0.001
738.00,-0.001
739.00,-0.001
740.00,-0.001
741.00,-0.001
742.00,-0.001
743.00,-0.001
744.00,-0.001
745.00,-0.001
746.00,-0.001
747.00,-0.001
748.00,-0.001
749.00,-0.001
750.00,-0.001
751.00,-0.001
752.00,-0.001
753.00,-0.001
754.00,-0.001
755.00,-0.001
756.00,-0.001
757.00,-0.001
758.00,-0.001
759.00,-0.001
760.00,-0.001
761.00,-0.001
762.00,-0.001
763.00,-0.001
764.00,-0.001
765.00,-0.001
766.00,-0.001
767.00,-0.001
768.00,-0.001
769.00,-0.001
770.00,-0.001
771.00,-0.001
772.00,-0.001
773.00,-0.001
774.00,-0.001
775.00,-0.001
776.00,-0.001
777.00,-0.001
778.00,-0.001
779.00,-0.001
780.00,-0.001
781.00,-0.001
782.00,-0.001
783.00,-0.001
784.00,-0.001
785.00,-0.001
786.00,-0.001
787.00,-0.001
788.00,-0.001
789.00,-0.001
790.00,-0.001
791.00,-0.001
792.00,-0.001
793.00,-0.001
794.00,-0.001
795.00,-0.001
796.00,-0.001
797.00,-0.001
798.00,-0.001
799.00,-0.001
800.00,-0.001
