"File_240203_035027 - RawData"
"Wavelength nm.","Abs."
200.00,0.187
201.00,0.266
202.00,0.151
203.00,0.170
204.00,0.191
205.00,0.250
206.00,0.195
207.00,0.153
208.00,0.209
209.00,0.177
210.00,0.203
211.00,0.254
212.00,0.181
213.00,0.236
214.00,0.170
215.00,0.204
216.00,0.180
217.00,0.189
218.00,0.299
219.00,0.430
220.00,0.512
221.00,0.545
222.00,0.552
223.00,0.562
224.00,0.571
225.00,0.573
226.00,0.577
227.00,0.575
228.00,0.572
229.00,0.567
230.00,0.560
231.00,0.550
232.00,0.537
233.00,0.521
234.00,0.506
235.00,0.488
236.00,0.468
237.00,0.449
238.00,0.427
239.00,0.407
240.00,0.386
241.00,0.364
242.00,0.344
243.00,0.323
244.00,0.302
245.00,0.283
246.00,0.263
247.00,0.245
248.00,0.227
249.00,0.210
250.00,0.193
251.00,0.177
252.00,0.161
253.00,0.146
254.00,0.129
255.00,0.116
256.00,0.102
257.00,0.092
258.00,0.083
259.00,0.075
260.00,0.068
261.00,0.062
262.00,0.056
263.00,0.053
264.00,0.049
265.00,0.045
266.00,0.042
267.00,0.037
268.00,0.035
269.00,0.033
270.00,0.030
271.00,0.027
272.00,0.025
273.00,0.022
274.00,0.018
275.00,0.016
276.00,0.013
277.00,0.012
278.00,0.009
279.00,0.006
280.00,0.005
281.00,0.003
282.00,0.001
283.00,0.000
284.00,-0.002
285.00,-0.002
286.00,-0.003
287.00,-0.004
288.00,-0.004
289.00,-0.004
290.00,-0.005
291.00,-0.005
292.00,-0.006
293.00,-0.006
294.00,-0.006
295.00,-0.007
296.00,-0.007
297.00,-0.008
298.00,-0.008
299.00,-0.009
300.00,-0.009
301.00,-0.010
302.00,-0.010
303.00,-0.010
304.00,-0.010
305.00,-0.010
306.00,-0.010
307.00,-0.010
308.00,-0.010
309.00,-0.009
310.00,-0.010
311.00,-0.009
312.00,-0.009
313.00,-0.008
314.00,-0.008
315.00,-0.008
316.00,-0.007
317.00,-0.007
318.00,-0.007
319.00,-0.006
320.00,-0.006
321.00,-0.006
322.00,-0.005
323.00,-0.004
324.00,-0.004
325.00,-0.003
326.00,-0.003
327.00,-0.003
328.00,-0.003
329.00,-0.003
330.00,-0.002
331.00,-0.003
332.00,-0.002
333.00,-0.002
334.00,-0.003
335.00,-0.002
336.00,-0.001
337.00,-0.002
338.00,-0.002
339.00,-0.001
340.00,-0.001
341.00,-0.002
342.00,-0.002
343.00,-0.003
344.00,-0.002
345.00,-0.001
346.00,-0.002
347.00,-0.002
348.00,-0.002
349.00,-0.002
350.00,-0.002
351.00,-0.003
352.00,-0.002
353.00,-0.002
354.00,-0.001
355.00,-0.003
356.00,-0.002
357.00,-0.002
358.00,-0.003
359.00,-0.002
360.00,-0.002
361.00,-0.003
362.00,-0.002
363.00,-0.002
364.00,-0.003
365.00,-0.003
366.00,-0.001
367.00,-0.002
368.00,-0.002
369.00,-0.001
370.00,-0.002
371.00,-0.001
372.00,-0.003
373.00,-0.001
374.00,-0.001
375.00,-0.003
376.00,-0.002
377.00,0.001
378.00,0.003
379.00,-0.003
380.00,-0.001
381.00,-0.000
382.00,0.001
383.00,-0.000
384.00,-0.001
385.00,-0.000
386.00,0.000
387.00,-0.003
388.00,-0.003
389.00,0.000
390.00,-0.000
391.00,-0.004
392.00,-0.000
393.00,-0.001
394.00,-0.001
395.00,-0.001
396.00,-0.001
397.00,-0.001
398.00,-0.001
399.00,-0.001
400.00,-0.001
401.00,-0.001
402.00,-0.001
403.00,-0.002
404.00,-0.001
405.00,-0.002
406.00,-0.001
407.00,-0.000
408.00,-0.000
409.00,-0.003
410.00,-0.002
411.00,-0.002
412.00,-0.002
413.00,-0.000
414.00,-0.003
415.00,0.000
416.00,-0.001
417.00,-0.001
418.00,0.000
419.00,-0.002
420.00,-0.001
421.00,-0.001
422.00,-0.001
423.00,-0.000
424.00,-0.001
425.00,-0.002
426.00,-0.002
427.00,-0.002
428.00,-0.002
429.00,-0.002
430.00,-0.002
431.00,-0.002
432.00,-0.002
433.00,-0.001
434.00,-0.002
435.00,-0.001
436.00,-0.001
437.00,-0.002
438.00,-0.002
439.00,-0.001
440.00,-0.002
441.00,-0.002
442.00,-0.002
443.00,-0.001
444.00,-0.001
445.00,-0.002
446.00,-0.001
447.00,-0.002
448.00,-0.002
449.00,-0.002
450.00,-0.001
451.00,-0.002
452.00,-0.002
453.00,-0.002
454.00,-0.001
455.00,-0.001
456.00,-0.001
457.00,-0.001
458.00,-0.001
459.00,-0.002
460.00,-0.002
461.00,-0.002
462.00,-0.001
463.00,-0.001
464.00,-0.001
465.00,-0.001
466.00,-0.001
467.00,-0.001
468.00,-0.001
469.00,-0.001
470.00,-0.001
471.00,-0.001
472.00,-0.001
473.00,-0.001
474.00,-0.001
475.00,-0.001
476.00,-0.001
477.00,-0.001
478.00,-0.001
479.00,-0.001
480.00,-0.001
481.00,-0.001
482.00,-0.001
483.00,-0.001
484.00,-0.001
485.00,-0.001
486.00,-0.001
487.00,-0.001
488.00,-0.001
489.00,-0.001
490.00,-0.001
491.00,-0.001
492.00,-0.001
493.00,-0.001
494.00,-0.001
495.00,-0.001
496.00,-0.001
497.00,-0.001
498.00,-0.001
499.00,-0.001
500.00,-0.001
501.00,-0.001
502.00,-0.001
503.00,-0.001
504.00,-0.001
505.00,-0.001
506.00,-0.001
507.00,-0.001
508.00,-0.001
509.00,-0.001
510.00,-0.001
511.00,-0.001
512.00,-0.001
513.00,-0.001
514.00,-0.001
515.00,-0.001
516.00,-0.001
517.00,-0.001
518.00,-0.001
519.00,-0.001
520.00,-0.001
521.00,-0.001
522.00,-0.001
523.00,-0.001
524.00,-0.001
525.00,-0.001
526.00,-0.001
527.00,-0.001
528.00,-0.001
529.00,-0.001
530.00,-0.001
531.00,-0.001
532.00,-0.001
533.00,-0.001
534.00,-0.001
535.00,-0.001
536.00,-0.001
537.00,-0.001
538.00,-0.001
539.00,-0.001
540.00,-0.001
541.00,-0.001
542.00,-0.001
543.00,-0.001
544.00,-0.001
545.00,-0.001
546.00,-0.001
547.00,-0.001
548.00,-0.001
549.00,-0.001
550.00,-0.001
551.00,-0.001
552.00,-0.001
553.00,-0.001
554.00,-0.001
555.00,-0.001
556.00,-0.001
557.00,-0.001
558.00,-0.001
559.00,-0.001
560.00,-0.001
561.00,-0.001
562.00,-0.001
563.00,-0.001
564.00,-0.001
565.00,-0.001
566.00,-0.001
567.00,-0.001
568.00,-0.001
569.00,-0.001
570.00,-0.001
571.00,-0.001
572.00,-0.001
573.00,-0.001
574.00,-0.001
575.00,-0.001
576.00,-0.001
577.00,-0.001
578.00,-0.001
579.00,-0.001
580.00,-0.001
581.00,-0.001
582.00,-0.001
583.00,-0.001
584.00,-0.001
585.00,-0.001
586.00,-0.001
587.00,-0.001
588.00,-0.001
589.00,-0.001
590.00,-0.001
591.00,-0.001
592.00,-0.001
593.00,-0.001
594.00,-0.001
595.00,-0.001
596.00,-0.001
597.00,-0.001
598.00,-0.001
599.00,-0.001
600.00,-0.001
601.00,-0.000
602.00,-0.000
603.00,-0.000
604.00,-0.000
605.00,-0.000
606.00,-0.000
607.00,-0.000
608.00,-0.000
609.00,-0.000
610.00,-0.000
611.00,-0.000
612.00,-0.001
613.00,-0.000
614.00,-0.000
615.00,-0.000
616.00,-0.000
617.00,-0.000
618.00,-0.000
619.00,-0.000
620.00,-0.000
621.00,-0.000
622.00,-0.000
623.00,-0.000
624.00,-0.000
625.00,-0.000
626.00,-0.000
627.00,-0.000
628.00,-0.000
629.00,-0.000
630.00,-0.000
631.00,-0.000
632.00,-0.000
633.00,-0.000
634.00,-0.000
635.00,-0.000
636.00,-0.000
637.00,-0.000
638.00,-0.000
639.00,-0.000
640.00,-0.000
641.00,-0.000
642.00,-0.000
643.00,-0.000
644.00,-0.000
645.00,-0.000
646.00,-0.000
647.00,-0.000
648.00,-0.000
649.00,-0.000
650.00,-0.000
651.00,-0.000
652.00,-0.000
653.00,-0.000
654.00,-0.000
655.00,-0.000
656.00,-0.000
657.00,-0.000
658.00,-0.000
659.00,-0.000
660.00,-0.000
661.00,-0.000
662.00,-0.000
663.00,-0.000
664.00,-0.000
665.00,-0.000
666.00,-0.000
667.00,-0.000
668.00,-0.000
669.00,-0.000
670.00,-0.000
671.00,0.000
672.00,0.000
673.00,0.000
674.00,-0.000
675.00,-0.000
676.00,-0.000
677.00,-0.000
678.00,-0.000
679.00,-0.000
680.00,-0.000
681.00,-0.000
682.00,-0.000
683.00,-0.000
684.00,-0.000
685.00,-0.000
686.00,-0.000
687.00,-0.000
688.00,-0.000
689.00,-0.000
690.00,-0.000
691.00,-0.000
692.00,-0.000
693.00,-0.000
694.00,-0.000
695.00,-0.000
696.00,-0.000
697.00,-0.000
698.00,-0.000
699.00,-0.000
700.00,-0.000
701.00,-0.000
702.00,-0.000
703.00,-0.000
704.00,-0.000
705.00,-0.000
706.00,-0.000
707.00,-0.000
708.00,-0.000
709.00,-0.000
710.00,-0.000
711.00,0.000
712.00,-0.000
713.00,-0.000
714.00,-0.000
715.00,-0.000
716.00,-0.000
717.00,-0.000
718.00,-0.000
719.00,-0.000
720.00,-0.000
721.00,-0.000
722.00,-0.000
723.00,0.000
724.00,-0.000
725.00,-0.000
726.00,-0.000
727.00,-0.000
728.00,-0.000
729.00,-0.000
730.00,-0.000
731.00,-0.000
732.00,-0.000
733.00,-0.000
734.00,-0.000
735.00,-0.000
736.00,-0.000
737.00,-0.000
738.00,0.000
739.00,-0.000
740.00,-0.000
741.00,-0.000
742.00,-0.000
743.00,-0.000
744.00,-0.000
745.00,-0.000
746.00,0.000
747.00,-0.000
748.00,-0.000
749.00,-0.000
750.00,-0.000
751.00,-0.000
752.00,-0.000
753.00,0.000
754.00,0.000
755.00,0.000
756.00,-0.000
757.00,0.000
758.00,-0.000
759.00,-0.000
760.00,0.000
761.00,0.000
762.00,0.000
763.00,0.000
764.00,0.000
765.00,0.000
766.00,0.000
767.00,-0.000
768.00,-0.000
769.00,0.000
770.00,-0.000
771.00,0.000
772.00,0.000
773.00,0.000
774.00,0.000
775.00,0.000
776.00,0.001
777.00,0.000
778.00,0.000
779.00,0.001
780.00,0.001
781.00,0.001
782.00,0.000
783.00,-0.000
784.00,-0.000
785.00,-0.000
786.00,-0.001
787.00,-0.001
788.00,-0.001
789.00,-0.002
790.00,-0.001
791.00,-0.002
792.00,-0.002
793.00,-0.002
794.00,-0.002
795.00,-0.001
796.00,-0.001
797.00,-0.001
798.00,-0.002
799.00,-0.001
800.00,-0.001
