"File_240203_072816 - RawData"
"Wavelength nm.","Abs."
200.00,0.156
201.00,0.144
202.00,0.155
203.00,0.083
204.00,0.226
205.00,0.091
206.00,0.170
207.00,0.145
208.00,0.172
209.00,0.161
210.00,0.093
211.00,0.163
212.00,0.197
213.00,0.147
214.00,0.167
215.00,0.135
216.00,0.274
217.00,0.236
218.00,0.295
219.00,0.505
220.00,0.589
221.00,0.645
222.00,0.652
223.00,0.666
224.00,0.676
225.00,0.682
226.00,0.685
227.00,0.688
228.00,0.684
229.00,0.680
230.00,0.667
231.00,0.652
232.00,0.633
233.00,0.610
234.00,0.586
235.00,0.562
236.00,0.534
237.00,0.507
238.00,0.478
239.00,0.449
240.00,0.420
241.00,0.392
242.00,0.367
243.00,0.341
244.00,0.316
245.00,0.292
246.00,0.269
247.00,0.248
248.00,0.228
249.00,0.209
250.00,0.190
251.00,0.173
252.00,0.158
253.00,0.144
254.00,0.132
255.00,0.119
256.00,0.109
257.00,0.100
258.00,0.093
259.00,0.084
260.00,0.079
261.00,0.073
262.00,0.069
263.00,0.063
264.00,0.059
265.00,0.055
266.00,0.052
267.00,0.049
268.00,0.047
269.00,0.044
270.00,0.038
271.00,0.035
272.00,0.030
273.00,0.028
274.00,0.024
275.00,0.020
276.00,0.017
277.00,0.014
278.00,0.010
279.00,0.008
280.00,0.005
281.00,0.003
282.00,-0.000
283.00,-0.001
284.00,-0.002
285.00,-0.004
286.00,-0.004
287.00,-0.006
288.00,-0.005
289.00,-0.005
290.00,-0.006
291.00,-0.006
292.00,-0.006
293.00,-0.006
294.00,-0.007
295.00,-0.006
296.00,-0.007
297.00,-0.007
298.00,-0.006
299.00,-0.007
300.00,-0.006
301.00,-0.007
302.00,-0.007
303.00,-0.007
304.00,-0.007
305.00,-0.007
306.00,-0.008
307.00,-0.008
308.00,-0.008
309.00,-0.007
310.00,-0.008
311.00,-0.007
312.00,-0.007
313.00,-0.007
314.00,-0.006
315.00,-0.007
316.00,-0.007
317.00,-0.007
318.00,-0.007
319.00,-0.007
320.00,-0.007
321.00,-0.007
322.00,-0.006
323.00,-0.007
324.00,-0.006
325.00,-0.007
326.00,-0.006
327.00,-0.006
328.00,-0.005
329.00,-0.006
330.00,-0.006
331.00,-0.006
332.00,-0.005
333.00,-0.006
334.00,-0.005
335.00,-0.006
336.00,-0.006
337.00,-0.006
338.00,-0.007
339.00,-0.005
340.00,-0.006
341.00,-0.006
342.00,-0.006
343.00,-0.006
344.00,-0.005
345.00,-0.005
346.00,-0.005
347.00,-0.006
348.00,-0.005
349.00,-0.006
350.00,-0.005
351.00,-0.005
352.00,-0.005
353.00,-0.005
354.00,-0.006
355.00,-0.005
356.00,-0.004
357.00,-0.006
358.00,-0.005
359.00,-0.004
360.00,-0.005
361.00,-0.006
362.00,-0.005
363.00,-0.006
364.00,-0.005
365.00,-0.005
366.00,-0.006
367.00,-0.005
368.00,-0.006
369.00,-0.005
370.00,-0.005
371.00,-0.006
372.00,-0.006
373.00,-0.006
374.00,-0.005
375.00,-0.003
376.00,-0.003
377.00,-0.004
378.00,-0.003
379.00,-0.006
380.00,-0.003
381.00,-0.003
382.00,-0.004
383.00,-0.004
384.00,-0.005
385.00,-0.003
386.00,-0.004
387.00,-0.004
388.00,-0.005
389.00,-0.005
390.00,-0.007
391.00,-0.007
392.00,-0.004
393.00,-0.004
394.00,-0.006
395.00,-0.005
396.00,-0.006
397.00,-0.004
398.00,-0.006
399.00,-0.005
400.00,-0.005
401.00,-0.004
402.00,-0.005
403.00,-0.005
404.00,-0.007
405.00,-0.005
406.00,-0.005
407.00,-0.005
408.00,-0.004
409.00,-0.005
410.00,-0.004
411.00,-0.004
412.00,-0.005
413.00,-0.004
414.00,-0.005
415.00,-0.005
416.00,-0.005
417.00,-0.005
418.00,-0.004
419.00,-0.003
420.00,-0.005
421.00,-0.005
422.00,-0.005
423.00,-0.004
424.00,-0.004
425.00,-0.005
426.00,-0.004
427.00,-0.005
428.00,-0.005
429.00,-0.005
430.00,-0.004
431.00,-0.005
432.00,-0.005
433.00,-0.005
434.00,-0.005
435.00,-0.005
436.00,-0.004
437.00,-0.005
438.00,-0.005
439.00,-0.004
440.00,-0.004
441.00,-0.005
442.00,-0.005
443.00,-0.005
444.00,-0.004
445.00,-0.005
446.00,-0.004
447.00,-0.005
448.00,-0.004
449.00,-0.004
450.00,-0.005
451.00,-0.004
452.00,-0.005
453.00,-0.005
454.00,-0.004
455.00,-0.005
456.00,-0.005
457.00,-0.004
458.00,-0.005
459.00,-0.004
460.00,-0.005
461.00,-0.005
462.00,-0.005
463.00,-0.004
464.00,-0.004
465.00,-0.004
466.00,-0.005
467.00,-0.004
468.00,-0.004
469.00,-0.004
470.00,-0.004
471.00,-0.004
472.00,-0.004
473.00,-0.004
474.00,-0.004
475.00,-0.004
476.00,-0.004
477.00,-0.004
478.00,-0.005
479.00,-0.004
480.00,-0.004
481.00,-0.004
482.00,-0.004
483.00,-0.004
484.00,-0.004
485.00,-0.004
486.00,-0.004
487.00,-0.004
488.00,-0.004
489.00,-0.004
490.00,-0.004
491.00,-0.004
492.00,-0.004
493.00,-0.004
494.00,-0.004
495.00,-0.004
496.00,-0.004
497.00,-0.004
498.00,-0.004
499.00,-0.004
500.00,-0.004
501.00,-0.004
502.00,-0.004
503.00,-0.004
504.00,-0.004
505.00,-0.004
506.00,-0.004
507.00,-0.004
508.00,-0.004
509.00,-0.004
510.00,-0.004
511.00,-0.004
512.00,-0.004
513.00,-0.004
514.00,-0.004
515.00,-0.004
516.00,-0.004
517.00,-0.004
518.00,-0.004
519.00,-0.004
520.00,-0.004
521.00,-0.004
522.00,-0.004
523.00,-0.004
524.00,-0.004
525.00,-0.004
526.00,-0.004
527.00,-0.004
528.00,-0.004
529.00,-0.004
530.00,-0.004
531.00,-0.004
532.00,-0.004
533.00,-0.004
534.00,-0.004
535.00,-0.004
536.00,-0.004
537.00,-0.004
538.00,-0.004
539.00,-0.004
540.00,-0.004
541.00,-0.004
542.00,-0.004
543.00,-0.004
544.00,-0.004
545.00,-0.004
546.00,-0.004
547.00,-0.004
548.00,-0.004
549.00,-0.004
550.00,-0.004
551.00,-0.004
552.00,-0.004
553.00,-0.004
554.00,-0.004
555.00,-0.004
556.00,-0.004
557.00,-0.004
558.00,-0.004
559.00,-0.004
560.00,-0.004
561.00,-0.004
562.00,-0.004
563.00,-0.004
564.00,-0.004
565.00,-0.004
566.00,-0.004
567.00,-0.004
568.00,-0.004
569.00,-0.004
570.00,-0.004
571.00,-0.004
572.00,-0.004
573.00,-0.004
574.00,-0.004
575.00,-0.004
576.00,-0.004
577.00,-0.003
578.00,-0.004
579.00,-0.004
580.00,-0.004
581.00,-0.004
582.00,-0.004
583.00,-0.004
584.00,-0.004
585.00,-0.004
586.00,-0.004
587.00,-0.004
588.00,-0.004
589.00,-0.004
590.00,-0.004
591.00,-0.004
592.00,-0.004
593.00,-0.004
594.00,-0.004
595.00,-0.004
596.00,-0.004
597.00,-0.004
598.00,-0.003
599.00,-0.004
600.00,-0.004
601.00,-0.004
602.00,-0.004
603.00,-0.004
604.00,-0.004
605.00,-0.004
606.00,-0.004
607.00,-0.004
608.00,-0.004
609.00,-0.004
610.00,-0.004
611.00,-0.003
612.00,-0.004
613.00,-0.004
614.00,-0.004
615.00,-0.004
616.00,-0.004
617.00,-0.004
618.00,-0.004
619.00,-0.003
620.00,-0.004
621.00,-0.004
622.00,-0.004
623.00,-0.004
624.00,-0.004
625.00,-0.003
626.00,-0.003
627.00,-0.004
628.00,-0.004
629.00,-0.004
630.00,-0.004
631.00,-0.004
632.00,-0.004
633.00,-0.004
634.00,-0.003
635.00,-0.004
636.00,-0.004
637.00,-0.003
638.00,-0.004
639.00,-0.004
640.00,-0.003
641.00,-0.003
642.00,-0.003
643.00,-0.004
644.00,-0.004
645.00,-0.003
646.00,-0.003
647.00,-0.003
648.00,-0.004
649.00,-0.003
650.00,-0.003
651.00,-0.003
652.00,-0.004
653.00,-0.003
654.00,-0.003
655.00,-0.003
656.00,-0.003
657.00,-0.003
658.00,-0.004
659.00,-0.003
660.00,-0.004
661.00,-0.003
662.00,-0.003
663.00,-0.003
664.00,-0.003
665.00,-0.003
666.00,-0.003
667.00,-0.003
668.00,-0.003
669.00,-0.003
670.00,-0.003
671.00,-0.003
672.00,-0.003
673.00,-0.003
674.00,-0.003
675.00,-0.003
676.00,-0.003
677.00,-0.003
678.00,-0.003
679.00,-0.003
680.00,-0.003
681.00,-0.003
682.00,-0.003
683.00,-0.003
684.00,-0.003
685.00,-0.003
686.00,-0.003
687.00,-0.003
688.00,-0.003
689.00,-0.003
690.00,-0.003
691.00,-0.003
692.00,-0.003
693.00,-0.003
694.00,-0.003
695.00,-0.003
696.00,-0.003
697.00,-0.003
698.00,-0.003
699.00,-0.003
700.00,-0.003
701.00,-0.003
702.00,-0.003
703.00,-0.003
704.00,-0.003
705.00,-0.003
706.00,-0.003
707.00,-0.003
708.00,-0.003
709.00,-0.003
710.00,-0.003
711.00,-0.003
712.00,-0.003
713.00,-0.003
714.00,-0.003
715.00,-0.003
716.00,-0.003
717.00,-0.003
718.00,-0.003
719.00,-0.003
720.00,-0.003
721.00,-0.003
722.00,-0.003
723.00,-0.003
724.00,-0.003
725.00,-0.003
726.00,-0.003
727.00,-0.003
728.00,-0.003
729.00,-0.003
730.00,-0.003
731.00,-0.003
732.00,-0.003
733.00,-0.003
734.00,-0.003
735.00,-0.003
736.00,-0.003
737.00,-0.003
738.00,-0.003
739.00,-0.003
740.00,-0.003
741.00,-0.003
742.00,-0.003
743.00,-0.003
744.00,-0.003
745.00,-0.003
746.00,-0.003
747.00,-0.003
748.00,-0.003
749.00,-0.003
750.00,-0.003
751.00,-0.003
752.00,-0.003
753.00,-0.003
754.00,-0.003
755.00,-0.003
756.00,-0.003
757.00,-0.003
758.00,-0.003
759.00,-0.003
760.00,-0.003
761.00,-0.003
762.00,-0.003
763.00,-0.003
764.00,-0.003
765.00,-0.003
766.00,-0.003
767.00,-0.003
768.00,-0.003
769.00,-0.003
770.00,-0.003
771.00,-0.003
772.00,-0.003
773.00,-0.003
774.00,-0.003
775.00,-0.003
776.00,-0.003
777.00,-0.003
778.00,-0.003
779.00,-0.003
780.00,-0.003
781.00,-0.003
782.00,-0.003
783.00,-0.003
784.00,-0.003
785.00,-0.003
786.00,-0.003
787.00,-0.003
788.00,-0.003
789.00,-0.003
790.00,-0.003
791.00,-0.003
792.00,-0.003
793.00,-0.003
794.00,-0.003
795.00,-0.003
796.00,-0.003
797.00,-0.003
798.00,-0.003
799.00,-0.003
800.00,-0.003
