"File_240203_071546 - RawData"
"Wavelength nm.","Abs."
200.00,0.134
201.00,0.155
202.00,0.196
203.00,0.141
204.00,0.189
205.00,0.134
206.00,0.214
207.00,0.182
208.00,0.163
209.00,0.159
210.00,0.092
211.00,0.136
212.00,0.175
213.00,0.171
214.00,0.221
215.00,0.142
216.00,0.225
217.00,0.221
218.00,0.294
219.00,0.482
220.00,0.572
221.00,0.603
222.00,0.615
223.00,0.626
224.00,0.644
225.00,0.639
226.00,0.645
227.00,0.640
228.00,0.639
229.00,0.632
230.00,0.621
231.00,0.605
232.00,0.588
233.00,0.568
234.00,0.544
235.00,0.523
236.00,0.497
237.00,0.471
238.00,0.445
239.00,0.418
240.00,0.392
241.00,0.367
242.00,0.342
243.00,0.319
244.00,0.295
245.00,0.273
246.00,0.252
247.00,0.232
248.00,0.214
249.00,0.197
250.00,0.180
251.00,0.164
252.00,0.149
253.00,0.136
254.00,0.125
255.00,0.114
256.00,0.104
257.00,0.096
258.00,0.088
259.00,0.081
260.00,0.075
261.00,0.070
262.00,0.066
263.00,0.061
264.00,0.057
265.00,0.053
266.00,0.050
267.00,0.048
268.00,0.045
269.00,0.042
270.00,0.037
271.00,0.034
272.00,0.030
273.00,0.027
274.00,0.024
275.00,0.021
276.00,0.017
277.00,0.014
278.00,0.011
279.00,0.008
280.00,0.006
281.00,0.004
282.00,0.002
283.00,0.000
284.00,-0.000
285.00,-0.002
286.00,-0.002
287.00,-0.003
288.00,-0.003
289.00,-0.004
290.00,-0.004
291.00,-0.003
292.00,-0.004
293.00,-0.004
294.00,-0.004
295.00,-0.005
296.00,-0.005
297.00,-0.005
298.00,-0.005
299.00,-0.005
300.00,-0.005
301.00,-0.005
302.00,-0.005
303.00,-0.005
304.00,-0.005
305.00,-0.005
306.00,-0.006
307.00,-0.005
308.00,-0.005
309.00,-0.006
310.00,-0.005
311.00,-0.005
312.00,-0.005
313.00,-0.005
314.00,-0.004
315.00,-0.004
316.00,-0.005
317.00,-0.004
318.00,-0.004
319.00,-0.004
320.00,-0.005
321.00,-0.005
322.00,-0.004
323.00,-0.005
324.00,-0.004
325.00,-0.005
326.00,-0.005
327.00,-0.004
328.00,-0.004
329.00,-0.004
330.00,-0.004
331.00,-0.005
332.00,-0.004
333.00,-0.004
334.00,-0.004
335.00,-0.004
336.00,-0.004
337.00,-0.004
338.00,-0.005
339.00,-0.004
340.00,-0.005
341.00,-0.004
342.00,-0.004
343.00,-0.003
344.00,-0.004
345.00,-0.004
346.00,-0.003
347.00,-0.004
348.00,-0.004
349.00,-0.004
350.00,-0.003
351.00,-0.004
352.00,-0.003
353.00,-0.003
354.00,-0.004
355.00,-0.004
356.00,-0.003
357.00,-0.004
358.00,-0.004
359.00,-0.002
360.00,-0.003
361.00,-0.004
362.00,-0.003
363.00,-0.003
364.00,-0.004
365.00,-0.004
366.00,-0.004
367.00,-0.003
368.00,-0.004
369.00,-0.004
370.00,-0.003
371.00,-0.004
372.00,-0.004
373.00,-0.004
374.00,-0.004
375.00,-0.005
376.00,0.000
377.00,-0.004
378.00,-0.003
379.00,-0.004
380.00,-0.004
381.00,-0.003
382.00,-0.001
383.00,-0.005
384.00,-0.004
385.00,-0.001
386.00,-0.004
387.00,-0.001
388.00,-0.005
389.00,-0.004
390.00,-0.004
391.00,-0.004
392.00,-0.003
393.00,-0.002
394.00,-0.004
395.00,-0.003
396.00,-0.004
397.00,-0.006
398.00,-0.003
399.00,-0.004
400.00,-0.003
401.00,-0.005
402.00,-0.004
403.00,-0.003
404.00,-0.004
405.00,-0.002
406.00,-0.004
407.00,-0.004
408.00,-0.003
409.00,-0.003
410.00,-0.002
411.00,-0.003
412.00,-0.004
413.00,-0.004
414.00,-0.003
415.00,-0.004
416.00,-0.003
417.00,-0.004
418.00,-0.002
419.00,-0.003
420.00,-0.005
421.00,-0.004
422.00,-0.004
423.00,-0.003
424.00,-0.004
425.00,-0.003
426.00,-0.003
427.00,-0.004
428.00,-0.004
429.00,-0.003
430.00,-0.003
431.00,-0.004
432.00,-0.004
433.00,-0.004
434.00,-0.003
435.00,-0.004
436.00,-0.003
437.00,-0.004
438.00,-0.004
439.00,-0.004
440.00,-0.003
441.00,-0.003
442.00,-0.003
443.00,-0.003
444.00,-0.002
445.00,-0.003
446.00,-0.002
447.00,-0.003
448.00,-0.003
449.00,-0.003
450.00,-0.003
451.00,-0.002
452.00,-0.003
453.00,-0.003
454.00,-0.003
455.00,-0.003
456.00,-0.003
457.00,-0.003
458.00,-0.003
459.00,-0.003
460.00,-0.003
461.00,-0.003
462.00,-0.004
463.00,-0.003
464.00,-0.003
465.00,-0.003
466.00,-0.003
467.00,-0.003
468.00,-0.003
469.00,-0.003
470.00,-0.003
471.00,-0.003
472.00,-0.003
473.00,-0.003
474.00,-0.003
475.00,-0.003
476.00,-0.003
477.00,-0.003
478.00,-0.004
479.00,-0.003
480.00,-0.003
481.00,-0.003
482.00,-0.003
483.00,-0.003
484.00,-0.003
485.00,-0.003
486.00,-0.003
487.00,-0.003
488.00,-0.003
489.00,-0.003
490.00,-0.004
491.00,-0.003
492.00,-0.003
493.00,-0.003
494.00,-0.003
495.00,-0.003
496.00,-0.003
497.00,-0.004
498.00,-0.003
499.00,-0.003
500.00,-0.003
501.00,-0.003
502.00,-0.003
503.00,-0.003
504.00,-0.003
505.00,-0.003
506.00,-0.003
507.00,-0.003
508.00,-0.003
509.00,-0.003
510.00,-0.003
511.00,-0.003
512.00,-0.003
513.00,-0.003
514.00,-0.003
515.00,-0.003
516.00,-0.003
517.00,-0.003
518.00,-0.003
519.00,-0.003
520.00,-0.003
521.00,-0.003
522.00,-0.003
523.00,-0.003
524.00,-0.003
525.00,-0.003
526.00,-0.003
527.00,-0.003
528.00,-0.003
529.00,-0.003
530.00,-0.003
531.00,-0.003
532.00,-0.003
533.00,-0.003
534.00,-0.003
535.00,-0.003
536.00,-0.003
537.00,-0.003
538.00,-0.003
539.00,-0.003
540.00,-0.003
541.00,-0.003
542.00,-0.003
543.00,-0.003
544.00,-0.003
545.00,-0.003
546.00,-0.003
547.00,-0.003
548.00,-0.003
549.00,-0.003
550.00,-0.003
551.00,-0.003
552.00,-0.003
553.00,-0.003
554.00,-0.003
555.00,-0.003
556.00,-0.003
557.00,-0.003
558.00,-0.003
559.00,-0.003
560.00,-0.003
561.00,-0.003
562.00,-0.003
563.00,-0.003
564.00,-0.003
565.00,-0.003
566.00,-0.003
567.00,-0.003
568.00,-0.002
569.00,-0.003
570.00,-0.003
571.00,-0.002
572.00,-0.003
573.00,-0.002
574.00,-0.003
575.00,-0.003
576.00,-0.003
577.00,-0.003
578.00,-0.003
579.00,-0.003
580.00,-0.003
581.00,-0.003
582.00,-0.003
583.00,-0.003
584.00,-0.003
585.00,-0.003
586.00,-0.003
587.00,-0.003
588.00,-0.003
589.00,-0.003
590.00,-0.003
591.00,-0.003
592.00,-0.003
593.00,-0.003
594.00,-0.003
595.00,-0.003
596.00,-0.003
597.00,-0.003
598.00,-0.003
599.00,-0.003
600.00,-0.003
601.00,-0.003
602.00,-0.003
603.00,-0.003
604.00,-0.003
605.00,-0.003
606.00,-0.003
607.00,-0.003
608.00,-0.003
609.00,-0.003
610.00,-0.003
611.00,-0.003
612.00,-0.003
613.00,-0.003
614.00,-0.003
615.00,-0.003
616.00,-0.003
617.00,-0.003
618.00,-0.003
619.00,-0.003
620.00,-0.003
621.00,-0.003
622.00,-0.003
623.00,-0.003
624.00,-0.003
625.00,-0.003
626.00,-0.003
627.00,-0.003
628.00,-0.003
629.00,-0.003
630.00,-0.003
631.00,-0.003
632.00,-0.003
633.00,-0.003
634.00,-0.003
635.00,-0.003
636.00,-0.003
637.00,-0.003
638.00,-0.003
639.00,-0.003
640.00,-0.003
641.00,-0.003
642.00,-0.003
643.00,-0.003
644.00,-0.003
645.00,-0.003
646.00,-0.003
647.00,-0.003
648.00,-0.003
649.00,-0.003
650.00,-0.003
651.00,-0.003
652.00,-0.003
653.00,-0.003
654.00,-0.003
655.00,-0.003
656.00,-0.003
657.00,-0.003
658.00,-0.003
659.00,-0.003
660.00,-0.003
661.00,-0.003
662.00,-0.003
663.00,-0.003
664.00,-0.003
665.00,-0.003
666.00,-0.003
667.00,-0.003
668.00,-0.003
669.00,-0.003
670.00,-0.003
671.00,-0.003
672.00,-0.003
673.00,-0.003
674.00,-0.003
675.00,-0.003
676.00,-0.003
677.00,-0.003
678.00,-0.003
679.00,-0.003
680.00,-0.003
681.00,-0.003
682.00,-0.003
683.00,-0.003
684.00,-0.003
685.00,-0.003
686.00,-0.003
687.00,-0.003
688.00,-0.003
689.00,-0.003
690.00,-0.003
691.00,-0.003
692.00,-0.003
693.00,-0.003
694.00,-0.003
695.00,-0.003
696.00,-0.003
697.00,-0.003
698.00,-0.003
699.00,-0.002
700.00,-0.003
701.00,-0.003
702.00,-0.003
703.00,-0.003
704.00,-0.003
705.00,-0.003
706.00,-0.003
707.00,-0.003
708.00,-0.003
709.00,-0.003
710.00,-0.003
711.00,-0.003
712.00,-0.003
713.00,-0.003
714.00,-0.003
715.00,-0.003
716.00,-0.003
717.00,-0.003
718.00,-0.003
719.00,-0.003
720.00,-0.003
721.00,-0.003
722.00,-0.003
723.00,-0.002
724.00,-0.002
725.00,-0.002
726.00,-0.003
727.00,-0.003
728.00,-0.003
729.00,-0.003
730.00,-0.003
731.00,-0.002
732.00,-0.003
733.00,-0.003
734.00,-0.003
735.00,-0.003
736.00,-0.003
737.00,-0.003
738.00,-0.003
739.00,-0.003
740.00,-0.003
741.00,-0.003
742.00,-0.003
743.00,-0.003
744.00,-0.003
745.00,-0.003
746.00,-0.003
747.00,-0.003
748.00,-0.003
749.00,-0.003
750.00,-0.003
751.00,-0.003
752.00,-0.003
753.00,-0.003
754.00,-0.002
755.00,-0.002
756.00,-0.003
757.00,-0.003
758.00,-0.002
759.00,-0.002
760.00,-0.002
761.00,-0.002
762.00,-0.003
763.00,-0.002
764.00,-0.003
765.00,-0.002
766.00,-0.002
767.00,-0.002
768.00,-0.003
769.00,-0.002
770.00,-0.003
771.00,-0.002
772.00,-0.002
773.00,-0.002
774.00,-0.002
775.00,-0.002
776.00,-0.002
777.00,-0.002
778.00,-0.002
779.00,-0.002
780.00,-0.002
781.00,-0.002
782.00,-0.002
783.00,-0.002
784.00,-0.002
785.00,-0.002
786.00,-0.002
787.00,-0.003
788.00,-0.002
789.00,-0.002
790.00,-0.002
791.00,-0.002
792.00,-0.002
793.00,-0.002
794.00,-0.002
795.00,-0.002
796.00,-0.002
797.00,-0.002
798.00,-0.002
799.00,-0.002
800.00,-0.002
