"File_240203_074109 - RawData"
"Wavelength nm.","Abs."
200.00,0.128
201.00,0.113
202.00,0.174
203.00,0.093
204.00,0.147
205.00,0.095
206.00,0.206
207.00,0.099
208.00,0.167
209.00,0.137
210.00,0.143
211.00,0.157
212.00,0.183
213.00,0.201
214.00,0.234
215.00,0.143
216.00,0.240
217.00,0.210
218.00,0.276
219.00,0.481
220.00,0.583
221.00,0.608
222.00,0.625
223.00,0.634
224.00,0.649
225.00,0.655
226.00,0.657
227.00,0.659
228.00,0.656
229.00,0.649
230.00,0.638
231.00,0.625
232.00,0.605
233.00,0.584
234.00,0.560
235.00,0.536
236.00,0.510
237.00,0.484
238.00,0.457
239.00,0.429
240.00,0.402
241.00,0.375
242.00,0.350
243.00,0.325
244.00,0.301
245.00,0.277
246.00,0.255
247.00,0.235
248.00,0.216
249.00,0.198
250.00,0.179
251.00,0.163
252.00,0.149
253.00,0.134
254.00,0.123
255.00,0.111
256.00,0.101
257.00,0.093
258.00,0.084
259.00,0.078
260.00,0.072
261.00,0.067
262.00,0.063
263.00,0.058
264.00,0.054
265.00,0.049
266.00,0.046
267.00,0.043
268.00,0.041
269.00,0.038
270.00,0.033
271.00,0.030
272.00,0.025
273.00,0.023
274.00,0.020
275.00,0.017
276.00,0.013
277.00,0.010
278.00,0.006
279.00,0.004
280.00,0.001
281.00,-0.001
282.00,-0.003
283.00,-0.005
284.00,-0.006
285.00,-0.007
286.00,-0.008
287.00,-0.009
288.00,-0.009
289.00,-0.008
290.00,-0.009
291.00,-0.009
292.00,-0.009
293.00,-0.009
294.00,-0.009
295.00,-0.009
296.00,-0.010
297.00,-0.009
298.00,-0.009
299.00,-0.009
300.00,-0.010
301.00,-0.009
302.00,-0.010
303.00,-0.009
304.00,-0.010
305.00,-0.010
306.00,-0.010
307.00,-0.009
308.00,-0.010
309.00,-0.010
310.00,-0.010
311.00,-0.010
312.00,-0.010
313.00,-0.009
314.00,-0.008
315.00,-0.009
316.00,-0.009
317.00,-0.009
318.00,-0.009
319.00,-0.009
320.00,-0.009
321.00,-0.009
322.00,-0.008
323.00,-0.009
324.00,-0.008
325.00,-0.009
326.00,-0.008
327.00,-0.008
328.00,-0.008
329.00,-0.008
330.00,-0.008
331.00,-0.009
332.00,-0.008
333.00,-0.008
334.00,-0.007
335.00,-0.008
336.00,-0.007
337.00,-0.008
338.00,-0.008
339.00,-0.007
340.00,-0.009
341.00,-0.007
342.00,-0.008
343.00,-0.007
344.00,-0.007
345.00,-0.008
346.00,-0.007
347.00,-0.008
348.00,-0.007
349.00,-0.007
350.00,-0.006
351.00,-0.007
352.00,-0.007
353.00,-0.007
354.00,-0.007
355.00,-0.007
356.00,-0.006
357.00,-0.008
358.00,-0.007
359.00,-0.006
360.00,-0.007
361.00,-0.007
362.00,-0.006
363.00,-0.007
364.00,-0.007
365.00,-0.006
366.00,-0.007
367.00,-0.006
368.00,-0.007
369.00,-0.007
370.00,-0.007
371.00,-0.007
372.00,-0.007
373.00,-0.007
374.00,-0.006
375.00,-0.008
376.00,-0.002
377.00,-0.006
378.00,-0.005
379.00,-0.003
380.00,-0.006
381.00,-0.006
382.00,-0.004
383.00,-0.004
384.00,-0.008
385.00,-0.004
386.00,-0.005
387.00,-0.004
388.00,-0.007
389.00,-0.006
390.00,-0.008
391.00,-0.007
392.00,-0.005
393.00,-0.005
394.00,-0.007
395.00,-0.005
396.00,-0.006
397.00,-0.007
398.00,-0.005
399.00,-0.006
400.00,-0.006
401.00,-0.006
402.00,-0.006
403.00,-0.006
404.00,-0.007
405.00,-0.005
406.00,-0.006
407.00,-0.006
408.00,-0.005
409.00,-0.005
410.00,-0.005
411.00,-0.004
412.00,-0.005
413.00,-0.006
414.00,-0.006
415.00,-0.005
416.00,-0.005
417.00,-0.006
418.00,-0.004
419.00,-0.005
420.00,-0.006
421.00,-0.006
422.00,-0.006
423.00,-0.005
424.00,-0.006
425.00,-0.006
426.00,-0.006
427.00,-0.006
428.00,-0.006
429.00,-0.006
430.00,-0.005
431.00,-0.006
432.00,-0.007
433.00,-0.006
434.00,-0.006
435.00,-0.006
436.00,-0.006
437.00,-0.006
438.00,-0.006
439.00,-0.006
440.00,-0.005
441.00,-0.005
442.00,-0.006
443.00,-0.006
444.00,-0.006
445.00,-0.006
446.00,-0.005
447.00,-0.005
448.00,-0.006
449.00,-0.005
450.00,-0.006
451.00,-0.005
452.00,-0.006
453.00,-0.006
454.00,-0.005
455.00,-0.006
456.00,-0.006
457.00,-0.006
458.00,-0.006
459.00,-0.006
460.00,-0.006
461.00,-0.005
462.00,-0.006
463.00,-0.005
464.00,-0.006
465.00,-0.005
466.00,-0.006
467.00,-0.005
468.00,-0.005
469.00,-0.005
470.00,-0.005
471.00,-0.005
472.00,-0.005
473.00,-0.005
474.00,-0.005
475.00,-0.005
476.00,-0.005
477.00,-0.005
478.00,-0.005
479.00,-0.005
480.00,-0.005
481.00,-0.005
482.00,-0.005
483.00,-0.005
484.00,-0.005
485.00,-0.005
486.00,-0.005
487.00,-0.005
488.00,-0.005
489.00,-0.005
490.00,-0.005
491.00,-0.005
492.00,-0.005
493.00,-0.005
494.00,-0.005
495.00,-0.005
496.00,-0.005
497.00,-0.005
498.00,-0.005
499.00,-0.005
500.00,-0.005
501.00,-0.005
502.00,-0.005
503.00,-0.005
504.00,-0.005
505.00,-0.005
506.00,-0.005
507.00,-0.005
508.00,-0.005
509.00,-0.005
510.00,-0.005
511.00,-0.005
512.00,-0.005
513.00,-0.005
514.00,-0.005
515.00,-0.005
516.00,-0.005
517.00,-0.005
518.00,-0.005
519.00,-0.005
520.00,-0.005
521.00,-0.004
522.00,-0.005
523.00,-0.005
524.00,-0.005
525.00,-0.005
526.00,-0.004
527.00,-0.005
528.00,-0.005
529.00,-0.005
530.00,-0.004
531.00,-0.005
532.00,-0.005
533.00,-0.005
534.00,-0.005
535.00,-0.005
536.00,-0.005
537.00,-0.005
538.00,-0.005
539.00,-0.005
540.00,-0.005
541.00,-0.004
542.00,-0.005
543.00,-0.005
544.00,-0.004
545.00,-0.004
546.00,-0.005
547.00,-0.005
548.00,-0.005
549.00,-0.004
550.00,-0.005
551.00,-0.005
552.00,-0.005
553.00,-0.005
554.00,-0.005
555.00,-0.005
556.00,-0.004
557.00,-0.005
558.00,-0.005
559.00,-0.004
560.00,-0.005
561.00,-0.005
562.00,-0.005
563.00,-0.004
564.00,-0.005
565.00,-0.004
566.00,-0.004
567.00,-0.004
568.00,-0.004
569.00,-0.004
570.00,-0.004
571.00,-0.004
572.00,-0.004
573.00,-0.004
574.00,-0.004
575.00,-0.004
576.00,-0.004
577.00,-0.004
578.00,-0.005
579.00,-0.004
580.00,-0.004
581.00,-0.004
582.00,-0.004
583.00,-0.004
584.00,-0.004
585.00,-0.004
586.00,-0.004
587.00,-0.005
588.00,-0.004
589.00,-0.004
590.00,-0.004
591.00,-0.004
592.00,-0.004
593.00,-0.004
594.00,-0.004
595.00,-0.004
596.00,-0.004
597.00,-0.004
598.00,-0.004
599.00,-0.004
600.00,-0.004
601.00,-0.004
602.00,-0.004
603.00,-0.004
604.00,-0.004
605.00,-0.004
606.00,-0.004
607.00,-0.004
608.00,-0.004
609.00,-0.004
610.00,-0.004
611.00,-0.004
612.00,-0.004
613.00,-0.004
614.00,-0.004
615.00,-0.004
616.00,-0.004
617.00,-0.004
618.00,-0.004
619.00,-0.004
620.00,-0.004
621.00,-0.004
622.00,-0.004
623.00,-0.004
624.00,-0.004
625.00,-0.004
626.00,-0.004
627.00,-0.004
628.00,-0.004
629.00,-0.004
630.00,-0.004
631.00,-0.004
632.00,-0.004
633.00,-0.004
634.00,-0.004
635.00,-0.004
636.00,-0.004
637.00,-0.004
638.00,-0.004
639.00,-0.004
640.00,-0.004
641.00,-0.004
642.00,-0.004
643.00,-0.004
644.00,-0.004
645.00,-0.004
646.00,-0.004
647.00,-0.004
648.00,-0.004
649.00,-0.004
650.00,-0.004
651.00,-0.004
652.00,-0.004
653.00,-0.004
654.00,-0.004
655.00,-0.004
656.00,-0.004
657.00,-0.004
658.00,-0.004
659.00,-0.004
660.00,-0.004
661.00,-0.004
662.00,-0.004
663.00,-0.004
664.00,-0.004
665.00,-0.004
666.00,-0.004
667.00,-0.004
668.00,-0.004
669.00,-0.004
670.00,-0.004
671.00,-0.004
672.00,-0.004
673.00,-0.004
674.00,-0.004
675.00,-0.004
676.00,-0.004
677.00,-0.004
678.00,-0.004
679.00,-0.004
680.00,-0.004
681.00,-0.004
682.00,-0.004
683.00,-0.004
684.00,-0.004
685.00,-0.004
686.00,-0.004
687.00,-0.004
688.00,-0.004
689.00,-0.004
690.00,-0.004
691.00,-0.004
692.00,-0.004
693.00,-0.004
694.00,-0.004
695.00,-0.004
696.00,-0.004
697.00,-0.004
698.00,-0.004
699.00,-0.004
700.00,-0.004
701.00,-0.004
702.00,-0.004
703.00,-0.004
704.00,-0.004
705.00,-0.004
706.00,-0.004
707.00,-0.004
708.00,-0.004
709.00,-0.004
710.00,-0.004
711.00,-0.004
712.00,-0.004
713.00,-0.004
714.00,-0.004
715.00,-0.004
716.00,-0.004
717.00,-0.004
718.00,-0.004
719.00,-0.004
720.00,-0.004
721.00,-0.004
722.00,-0.004
723.00,-0.004
724.00,-0.003
725.00,-0.003
726.00,-0.003
727.00,-0.004
728.00,-0.004
729.00,-0.004
730.00,-0.004
731.00,-0.004
732.00,-0.004
733.00,-0.004
734.00,-0.004
735.00,-0.004
736.00,-0.004
737.00,-0.004
738.00,-0.004
739.00,-0.004
740.00,-0.004
741.00,-0.004
742.00,-0.004
743.00,-0.004
744.00,-0.004
745.00,-0.003
746.00,-0.004
747.00,-0.004
748.00,-0.004
749.00,-0.004
750.00,-0.004
751.00,-0.003
752.00,-0.004
753.00,-0.003
754.00,-0.003
755.00,-0.003
756.00,-0.004
757.00,-0.003
758.00,-0.003
759.00,-0.004
760.00,-0.003
761.00,-0.003
762.00,-0.004
763.00,-0.003
764.00,-0.003
765.00,-0.003
766.00,-0.004
767.00,-0.003
768.00,-0.003
769.00,-0.003
770.00,-0.003
771.00,-0.003
772.00,-0.003
773.00,-0.003
774.00,-0.003
775.00,-0.003
776.00,-0.003
777.00,-0.003
778.00,-0.003
779.00,-0.003
780.00,-0.003
781.00,-0.003
782.00,-0.003
783.00,-0.003
784.00,-0.003
785.00,-0.003
786.00,-0.003
787.00,-0.003
788.00,-0.003
789.00,-0.003
790.00,-0.003
791.00,-0.003
792.00,-0.003
793.00,-0.003
794.00,-0.003
795.00,-0.003
796.00,-0.003
797.00,-0.003
798.00,-0.003
799.00,-0.003
800.00,-0.003
