"File_240520_132636 - RawData"
"Wavelength nm.","Abs."
200.00,2.207
201.00,2.196
202.00,2.013
203.00,1.796
204.00,1.587
205.00,1.377
206.00,1.208
207.00,1.071
208.00,0.963
209.00,0.877
210.00,0.804
211.00,0.750
212.00,0.712
213.00,0.684
214.00,0.661
215.00,0.651
216.00,0.655
217.00,0.663
218.00,0.664
219.00,0.666
220.00,0.673
221.00,0.685
222.00,0.697
223.00,0.709
224.00,0.718
225.00,0.726
226.00,0.730
227.00,0.731
228.00,0.728
229.00,0.722
230.00,0.711
231.00,0.695
232.00,0.675
233.00,0.652
234.00,0.628
235.00,0.600
236.00,0.573
237.00,0.544
238.00,0.515
239.00,0.485
240.00,0.456
241.00,0.429
242.00,0.403
243.00,0.377
244.00,0.353
245.00,0.329
246.00,0.308
247.00,0.288
248.00,0.270
249.00,0.253
250.00,0.237
251.00,0.222
252.00,0.210
253.00,0.199
254.00,0.190
255.00,0.182
256.00,0.175
257.00,0.169
258.00,0.165
259.00,0.161
260.00,0.158
261.00,0.156
262.00,0.155
263.00,0.152
264.00,0.149
265.00,0.147
266.00,0.144
267.00,0.142
268.00,0.141
269.00,0.139
270.00,0.133
271.00,0.126
272.00,0.121
273.00,0.115
274.00,0.109
275.00,0.103
276.00,0.096
277.00,0.089
278.00,0.083
279.00,0.075
280.00,0.069
281.00,0.063
282.00,0.057
283.00,0.051
284.00,0.046
285.00,0.042
286.00,0.037
287.00,0.033
288.00,0.030
289.00,0.026
290.00,0.023
291.00,0.020
292.00,0.017
293.00,0.014
294.00,0.012
295.00,0.010
296.00,0.007
297.00,0.006
298.00,0.004
299.00,0.003
300.00,0.002
301.00,0.001
302.00,-0.000
303.00,-0.001
304.00,-0.002
305.00,-0.004
306.00,-0.004
307.00,-0.005
308.00,-0.006
309.00,-0.005
310.00,-0.006
311.00,-0.006
312.00,-0.007
313.00,-0.007
314.00,-0.007
315.00,-0.008
316.00,-0.008
317.00,-0.008
318.00,-0.009
319.00,-0.009
320.00,-0.009
321.00,-0.009
322.00,-0.010
323.00,-0.010
324.00,-0.009
325.00,-0.010
326.00,-0.010
327.00,-0.010
328.00,-0.010
329.00,-0.011
330.00,-0.011
331.00,-0.011
332.00,-0.012
333.00,-0.011
334.00,-0.012
335.00,-0.012
336.00,-0.012
337.00,-0.013
338.00,-0.013
339.00,-0.014
340.00,-0.014
341.00,-0.014
342.00,-0.014
343.00,-0.013
344.00,-0.014
345.00,-0.014
346.00,-0.014
347.00,-0.015
348.00,-0.015
349.00,-0.014
350.00,-0.015
351.00,-0.015
352.00,-0.015
353.00,-0.015
354.00,-0.015
355.00,-0.017
356.00,-0.017
357.00,-0.016
358.00,-0.016
359.00,-0.016
360.00,-0.016
361.00,-0.016
362.00,-0.017
363.00,-0.017
364.00,-0.017
365.00,-0.016
366.00,-0.016
367.00,-0.017
368.00,-0.017
369.00,-0.016
370.00,-0.016
371.00,-0.017
372.00,-0.016
373.00,-0.016
374.00,-0.017
375.00,-0.014
376.00,-0.014
377.00,-0.016
378.00,-0.014
379.00,-0.017
380.00,-0.016
381.00,-0.013
382.00,-0.017
383.00,-0.015
384.00,-0.016
385.00,-0.017
386.00,-0.016
387.00,-0.015
388.00,-0.014
389.00,-0.015
390.00,-0.016
391.00,-0.016
392.00,-0.015
393.00,-0.014
394.00,-0.015
395.00,-0.014
396.00,-0.014
397.00,-0.015
398.00,-0.015
399.00,-0.014
400.00,-0.014
401.00,-0.016
402.00,-0.015
403.00,-0.015
404.00,-0.014
405.00,-0.015
406.00,-0.014
407.00,-0.013
408.00,-0.014
409.00,-0.013
410.00,-0.015
411.00,-0.014
412.00,-0.013
413.00,-0.013
414.00,-0.014
415.00,-0.013
416.00,-0.013
417.00,-0.013
418.00,-0.013
419.00,-0.012
420.00,-0.014
421.00,-0.014
422.00,-0.013
423.00,-0.013
424.00,-0.012
425.00,-0.013
426.00,-0.014
427.00,-0.013
428.00,-0.013
429.00,-0.013
430.00,-0.013
431.00,-0.013
432.00,-0.013
433.00,-0.013
434.00,-0.013
435.00,-0.013
436.00,-0.013
437.00,-0.013
438.00,-0.013
439.00,-0.013
440.00,-0.013
441.00,-0.013
442.00,-0.013
443.00,-0.013
444.00,-0.013
445.00,-0.013
446.00,-0.013
447.00,-0.013
448.00,-0.013
449.00,-0.013
450.00,-0.013
451.00,-0.013
452.00,-0.013
453.00,-0.013
454.00,-0.013
455.00,-0.013
456.00,-0.013
457.00,-0.013
458.00,-0.013
459.00,-0.013
460.00,-0.013
461.00,-0.013
462.00,-0.013
463.00,-0.013
464.00,-0.013
465.00,-0.013
466.00,-0.013
467.00,-0.013
468.00,-0.013
469.00,-0.013
470.00,-0.013
471.00,-0.013
472.00,-0.013
473.00,-0.013
474.00,-0.013
475.00,-0.013
476.00,-0.013
477.00,-0.013
478.00,-0.013
479.00,-0.013
480.00,-0.013
481.00,-0.012
482.00,-0.012
483.00,-0.012
484.00,-0.012
485.00,-0.012
486.00,-0.012
487.00,-0.012
488.00,-0.012
489.00,-0.012
490.00,-0.012
491.00,-0.012
492.00,-0.012
493.00,-0.012
494.00,-0.012
495.00,-0.012
496.00,-0.012
497.00,-0.012
498.00,-0.012
499.00,-0.012
500.00,-0.012
501.00,-0.012
502.00,-0.012
503.00,-0.012
504.00,-0.012
505.00,-0.012
506.00,-0.012
507.00,-0.012
508.00,-0.012
509.00,-0.012
510.00,-0.012
511.00,-0.012
512.00,-0.012
513.00,-0.012
514.00,-0.012
515.00,-0.012
516.00,-0.012
517.00,-0.012
518.00,-0.012
519.00,-0.012
520.00,-0.012
521.00,-0.012
522.00,-0.012
523.00,-0.012
524.00,-0.012
525.00,-0.012
526.00,-0.012
527.00,-0.012
528.00,-0.011
529.00,-0.011
530.00,-0.011
531.00,-0.011
532.00,-0.011
533.00,-0.011
534.00,-0.011
535.00,-0.011
536.00,-0.011
537.00,-0.011
538.00,-0.011
539.00,-0.011
540.00,-0.011
541.00,-0.011
542.00,-0.011
543.00,-0.011
544.00,-0.011
545.00,-0.011
546.00,-0.011
547.00,-0.011
548.00,-0.011
549.00,-0.011
550.00,-0.011
551.00,-0.011
552.00,-0.011
553.00,-0.011
554.00,-0.011
555.00,-0.011
556.00,-0.011
557.00,-0.011
558.00,-0.011
559.00,-0.011
560.00,-0.011
561.00,-0.011
562.00,-0.011
563.00,-0.011
564.00,-0.011
565.00,-0.011
566.00,-0.011
567.00,-0.011
568.00,-0.011
569.00,-0.011
570.00,-0.011
571.00,-0.011
572.00,-0.011
573.00,-0.011
574.00,-0.011
575.00,-0.011
576.00,-0.011
577.00,-0.011
578.00,-0.011
579.00,-0.011
580.00,-0.011
581.00,-0.011
582.00,-0.011
583.00,-0.011
584.00,-0.011
585.00,-0.011
586.00,-0.011
587.00,-0.011
588.00,-0.011
589.00,-0.011
590.00,-0.011
591.00,-0.011
592.00,-0.011
593.00,-0.011
594.00,-0.011
595.00,-0.011
596.00,-0.011
597.00,-0.011
598.00,-0.011
599.00,-0.011
600.00,-0.011
601.00,-0.011
602.00,-0.011
603.00,-0.011
604.00,-0.011
605.00,-0.011
606.00,-0.011
607.00,-0.011
608.00,-0.011
609.00,-0.011
610.00,-0.011
611.00,-0.011
612.00,-0.011
613.00,-0.011
614.00,-0.011
615.00,-0.011
616.00,-0.011
617.00,-0.011
618.00,-0.011
619.00,-0.011
620.00,-0.011
621.00,-0.011
622.00,-0.011
623.00,-0.011
624.00,-0.011
625.00,-0.011
626.00,-0.011
627.00,-0.011
628.00,-0.011
629.00,-0.011
630.00,-0.011
631.00,-0.011
632.00,-0.011
633.00,-0.011
634.00,-0.011
635.00,-0.011
636.00,-0.011
637.00,-0.011
638.00,-0.011
639.00,-0.011
640.00,-0.011
641.00,-0.011
642.00,-0.011
643.00,-0.011
644.00,-0.011
645.00,-0.011
646.00,-0.011
647.00,-0.011
648.00,-0.011
649.00,-0.011
650.00,-0.011
651.00,-0.011
652.00,-0.011
653.00,-0.011
654.00,-0.011
655.00,-0.011
656.00,-0.011
657.00,-0.011
658.00,-0.011
659.00,-0.011
660.00,-0.011
661.00,-0.010
662.00,-0.010
663.00,-0.011
664.00,-0.011
665.00,-0.010
666.00,-0.010
667.00,-0.010
668.00,-0.010
669.00,-0.010
670.00,-0.010
671.00,-0.010
672.00,-0.010
673.00,-0.010
674.00,-0.010
675.00,-0.010
676.00,-0.010
677.00,-0.010
678.00,-0.010
679.00,-0.010
680.00,-0.010
681.00,-0.010
682.00,-0.010
683.00,-0.010
684.00,-0.010
685.00,-0.010
686.00,-0.010
687.00,-0.010
688.00,-0.010
689.00,-0.010
690.00,-0.010
691.00,-0.010
692.00,-0.010
693.00,-0.010
694.00,-0.010
695.00,-0.010
696.00,-0.010
697.00,-0.010
698.00,-0.010
699.00,-0.010
700.00,-0.010
701.00,-0.010
702.00,-0.010
703.00,-0.010
704.00,-0.010
705.00,-0.010
706.00,-0.010
707.00,-0.010
708.00,-0.010
709.00,-0.010
710.00,-0.010
711.00,-0.010
712.00,-0.010
713.00,-0.010
714.00,-0.010
715.00,-0.010
716.00,-0.010
717.00,-0.010
718.00,-0.010
719.00,-0.010
720.00,-0.010
721.00,-0.010
722.00,-0.010
723.00,-0.010
724.00,-0.010
725.00,-0.010
726.00,-0.010
727.00,-0.010
728.00,-0.010
729.00,-0.010
730.00,-0.010
731.00,-0.010
732.00,-0.010
733.00,-0.010
734.00,-0.010
735.00,-0.010
736.00,-0.010
737.00,-0.010
738.00,-0.010
739.00,-0.010
740.00,-0.010
741.00,-0.010
742.00,-0.010
743.00,-0.010
744.00,-0.010
745.00,-0.010
746.00,-0.010
747.00,-0.010
748.00,-0.010
749.00,-0.010
750.00,-0.010
751.00,-0.010
752.00,-0.010
753.00,-0.010
754.00,-0.010
755.00,-0.009
756.00,-0.010
757.00,-0.010
758.00,-0.009
759.00,-0.010
760.00,-0.010
761.00,-0.010
762.00,-0.010
763.00,-0.010
764.00,-0.010
765.00,-0.010
766.00,-0.009
767.00,-0.009
768.00,-0.009
769.00,-0.009
770.00,-0.009
771.00,-0.009
772.00,-0.009
773.00,-0.009
774.00,-0.009
775.00,-0.009
776.00,-0.009
777.00,-0.009
778.00,-0.009
779.00,-0.009
780.00,-0.009
781.00,-0.009
782.00,-0.009
783.00,-0.009
784.00,-0.009
785.00,-0.009
786.00,-0.009
787.00,-0.009
788.00,-0.009
789.00,-0.009
790.00,-0.009
791.00,-0.009
792.00,-0.009
793.00,-0.009
794.00,-0.009
795.00,-0.009
796.00,-0.009
797.00,-0.009
798.00,-0.009
799.00,-0.009
800.00,-0.009
