"File_240520_130426 - RawData"
"Wavelength nm.","Abs."
200.00,1.881
201.00,1.850
202.00,1.800
203.00,1.787
204.00,1.733
205.00,1.638
206.00,1.573
207.00,1.481
208.00,1.400
209.00,1.315
210.00,1.223
211.00,1.137
212.00,1.060
213.00,0.956
214.00,0.839
215.00,0.739
216.00,0.666
217.00,0.590
218.00,0.497
219.00,0.412
220.00,0.350
221.00,0.310
222.00,0.284
223.00,0.265
224.00,0.250
225.00,0.238
226.00,0.228
227.00,0.220
228.00,0.211
229.00,0.203
230.00,0.194
231.00,0.185
232.00,0.177
233.00,0.169
234.00,0.162
235.00,0.155
236.00,0.149
237.00,0.143
238.00,0.136
239.00,0.131
240.00,0.125
241.00,0.120
242.00,0.116
243.00,0.111
244.00,0.107
245.00,0.102
246.00,0.099
247.00,0.096
248.00,0.093
249.00,0.090
250.00,0.086
251.00,0.083
252.00,0.082
253.00,0.080
254.00,0.078
255.00,0.077
256.00,0.074
257.00,0.072
258.00,0.072
259.00,0.071
260.00,0.070
261.00,0.072
262.00,0.072
263.00,0.068
264.00,0.066
265.00,0.064
266.00,0.061
267.00,0.061
268.00,0.066
269.00,0.066
270.00,0.058
271.00,0.051
272.00,0.048
273.00,0.045
274.00,0.043
275.00,0.040
276.00,0.038
277.00,0.036
278.00,0.034
279.00,0.032
280.00,0.030
281.00,0.027
282.00,0.026
283.00,0.024
284.00,0.022
285.00,0.020
286.00,0.019
287.00,0.017
288.00,0.016
289.00,0.014
290.00,0.013
291.00,0.011
292.00,0.010
293.00,0.009
294.00,0.008
295.00,0.006
296.00,0.005
297.00,0.004
298.00,0.004
299.00,0.003
300.00,0.002
301.00,0.002
302.00,0.001
303.00,0.001
304.00,0.000
305.00,-0.001
306.00,-0.001
307.00,-0.001
308.00,-0.001
309.00,-0.001
310.00,-0.002
311.00,-0.002
312.00,-0.002
313.00,-0.002
314.00,-0.002
315.00,-0.002
316.00,-0.002
317.00,-0.003
318.00,-0.003
319.00,-0.002
320.00,-0.003
321.00,-0.003
322.00,-0.003
323.00,-0.003
324.00,-0.003
325.00,-0.003
326.00,-0.003
327.00,-0.003
328.00,-0.003
329.00,-0.003
330.00,-0.003
331.00,-0.004
332.00,-0.004
333.00,-0.003
334.00,-0.004
335.00,-0.004
336.00,-0.004
337.00,-0.004
338.00,-0.004
339.00,-0.004
340.00,-0.004
341.00,-0.004
342.00,-0.005
343.00,-0.004
344.00,-0.005
345.00,-0.006
346.00,-0.005
347.00,-0.005
348.00,-0.005
349.00,-0.005
350.00,-0.006
351.00,-0.006
352.00,-0.005
353.00,-0.006
354.00,-0.005
355.00,-0.006
356.00,-0.007
357.00,-0.006
358.00,-0.006
359.00,-0.006
360.00,-0.007
361.00,-0.006
362.00,-0.006
363.00,-0.007
364.00,-0.006
365.00,-0.006
366.00,-0.007
367.00,-0.007
368.00,-0.006
369.00,-0.007
370.00,-0.006
371.00,-0.006
372.00,-0.007
373.00,-0.006
374.00,-0.006
375.00,-0.005
376.00,-0.004
377.00,-0.004
378.00,-0.002
379.00,-0.005
380.00,-0.005
381.00,-0.006
382.00,-0.007
383.00,-0.006
384.00,-0.006
385.00,-0.007
386.00,-0.006
387.00,-0.006
388.00,-0.005
389.00,-0.005
390.00,-0.005
391.00,-0.007
392.00,-0.007
393.00,-0.005
394.00,-0.007
395.00,-0.006
396.00,-0.006
397.00,-0.005
398.00,-0.005
399.00,-0.005
400.00,-0.006
401.00,-0.007
402.00,-0.005
403.00,-0.006
404.00,-0.005
405.00,-0.005
406.00,-0.005
407.00,-0.004
408.00,-0.005
409.00,-0.005
410.00,-0.006
411.00,-0.005
412.00,-0.006
413.00,-0.005
414.00,-0.005
415.00,-0.005
416.00,-0.004
417.00,-0.005
418.00,-0.004
419.00,-0.005
420.00,-0.005
421.00,-0.005
422.00,-0.004
423.00,-0.005
424.00,-0.005
425.00,-0.005
426.00,-0.005
427.00,-0.005
428.00,-0.005
429.00,-0.005
430.00,-0.005
431.00,-0.005
432.00,-0.005
433.00,-0.005
434.00,-0.005
435.00,-0.005
436.00,-0.005
437.00,-0.005
438.00,-0.005
439.00,-0.005
440.00,-0.005
441.00,-0.005
442.00,-0.005
443.00,-0.005
444.00,-0.005
445.00,-0.005
446.00,-0.005
447.00,-0.005
448.00,-0.005
449.00,-0.005
450.00,-0.006
451.00,-0.005
452.00,-0.005
453.00,-0.005
454.00,-0.005
455.00,-0.005
456.00,-0.005
457.00,-0.005
458.00,-0.005
459.00,-0.005
460.00,-0.005
461.00,-0.005
462.00,-0.005
463.00,-0.005
464.00,-0.005
465.00,-0.005
466.00,-0.005
467.00,-0.005
468.00,-0.005
469.00,-0.005
470.00,-0.005
471.00,-0.005
472.00,-0.005
473.00,-0.005
474.00,-0.005
475.00,-0.005
476.00,-0.005
477.00,-0.005
478.00,-0.005
479.00,-0.005
480.00,-0.005
481.00,-0.005
482.00,-0.005
483.00,-0.005
484.00,-0.005
485.00,-0.005
486.00,-0.005
487.00,-0.005
488.00,-0.005
489.00,-0.005
490.00,-0.005
491.00,-0.005
492.00,-0.005
493.00,-0.005
494.00,-0.005
495.00,-0.005
496.00,-0.005
497.00,-0.005
498.00,-0.005
499.00,-0.005
500.00,-0.005
501.00,-0.005
502.00,-0.005
503.00,-0.005
504.00,-0.005
505.00,-0.005
506.00,-0.005
507.00,-0.005
508.00,-0.005
509.00,-0.005
510.00,-0.005
511.00,-0.005
512.00,-0.005
513.00,-0.005
514.00,-0.005
515.00,-0.005
516.00,-0.005
517.00,-0.005
518.00,-0.005
519.00,-0.005
520.00,-0.005
521.00,-0.005
522.00,-0.005
523.00,-0.005
524.00,-0.005
525.00,-0.005
526.00,-0.005
527.00,-0.005
528.00,-0.005
529.00,-0.005
530.00,-0.005
531.00,-0.005
532.00,-0.004
533.00,-0.005
534.00,-0.005
535.00,-0.005
536.00,-0.004
537.00,-0.004
538.00,-0.004
539.00,-0.004
540.00,-0.004
541.00,-0.004
542.00,-0.005
543.00,-0.004
544.00,-0.004
545.00,-0.004
546.00,-0.004
547.00,-0.004
548.00,-0.004
549.00,-0.004
550.00,-0.004
551.00,-0.004
552.00,-0.004
553.00,-0.004
554.00,-0.004
555.00,-0.004
556.00,-0.004
557.00,-0.004
558.00,-0.004
559.00,-0.004
560.00,-0.004
561.00,-0.004
562.00,-0.004
563.00,-0.004
564.00,-0.004
565.00,-0.004
566.00,-0.004
567.00,-0.004
568.00,-0.004
569.00,-0.004
570.00,-0.004
571.00,-0.004
572.00,-0.004
573.00,-0.004
574.00,-0.004
575.00,-0.004
576.00,-0.004
577.00,-0.004
578.00,-0.004
579.00,-0.004
580.00,-0.004
581.00,-0.004
582.00,-0.004
583.00,-0.004
584.00,-0.004
585.00,-0.004
586.00,-0.004
587.00,-0.004
588.00,-0.004
589.00,-0.004
590.00,-0.004
591.00,-0.004
592.00,-0.004
593.00,-0.004
594.00,-0.004
595.00,-0.004
596.00,-0.004
597.00,-0.004
598.00,-0.004
599.00,-0.004
600.00,-0.004
601.00,-0.004
602.00,-0.004
603.00,-0.004
604.00,-0.004
605.00,-0.004
606.00,-0.004
607.00,-0.004
608.00,-0.004
609.00,-0.004
610.00,-0.004
611.00,-0.004
612.00,-0.004
613.00,-0.004
614.00,-0.004
615.00,-0.004
616.00,-0.004
617.00,-0.004
618.00,-0.004
619.00,-0.004
620.00,-0.004
621.00,-0.004
622.00,-0.004
623.00,-0.004
624.00,-0.004
625.00,-0.004
626.00,-0.004
627.00,-0.004
628.00,-0.004
629.00,-0.004
630.00,-0.004
631.00,-0.004
632.00,-0.004
633.00,-0.004
634.00,-0.004
635.00,-0.004
636.00,-0.004
637.00,-0.004
638.00,-0.004
639.00,-0.004
640.00,-0.004
641.00,-0.004
642.00,-0.004
643.00,-0.004
644.00,-0.004
645.00,-0.004
646.00,-0.004
647.00,-0.004
648.00,-0.004
649.00,-0.004
650.00,-0.004
651.00,-0.004
652.00,-0.004
653.00,-0.004
654.00,-0.004
655.00,-0.004
656.00,-0.004
657.00,-0.004
658.00,-0.003
659.00,-0.003
660.00,-0.003
661.00,-0.003
662.00,-0.003
663.00,-0.003
664.00,-0.003
665.00,-0.003
666.00,-0.003
667.00,-0.003
668.00,-0.003
669.00,-0.003
670.00,-0.003
671.00,-0.003
672.00,-0.003
673.00,-0.003
674.00,-0.003
675.00,-0.003
676.00,-0.003
677.00,-0.003
678.00,-0.003
679.00,-0.003
680.00,-0.003
681.00,-0.003
682.00,-0.003
683.00,-0.003
684.00,-0.003
685.00,-0.003
686.00,-0.003
687.00,-0.003
688.00,-0.003
689.00,-0.003
690.00,-0.003
691.00,-0.003
692.00,-0.003
693.00,-0.003
694.00,-0.003
695.00,-0.003
696.00,-0.003
697.00,-0.003
698.00,-0.003
699.00,-0.003
700.00,-0.003
701.00,-0.003
702.00,-0.003
703.00,-0.003
704.00,-0.003
705.00,-0.003
706.00,-0.003
707.00,-0.003
708.00,-0.003
709.00,-0.003
710.00,-0.003
711.00,-0.003
712.00,-0.003
713.00,-0.003
714.00,-0.003
715.00,-0.003
716.00,-0.003
717.00,-0.003
718.00,-0.003
719.00,-0.003
720.00,-0.003
721.00,-0.003
722.00,-0.003
723.00,-0.003
724.00,-0.003
725.00,-0.003
726.00,-0.002
727.00,-0.003
728.00,-0.002
729.00,-0.002
730.00,-0.002
731.00,-0.003
732.00,-0.002
733.00,-0.002
734.00,-0.002
735.00,-0.002
736.00,-0.002
737.00,-0.002
738.00,-0.002
739.00,-0.002
740.00,-0.002
741.00,-0.002
742.00,-0.002
743.00,-0.002
744.00,-0.002
745.00,-0.002
746.00,-0.002
747.00,-0.002
748.00,-0.002
749.00,-0.002
750.00,-0.002
751.00,-0.002
752.00,-0.002
753.00,-0.002
754.00,-0.002
755.00,-0.002
756.00,-0.002
757.00,-0.002
758.00,-0.002
759.00,-0.002
760.00,-0.002
761.00,-0.002
762.00,-0.002
763.00,-0.002
764.00,-0.002
765.00,-0.002
766.00,-0.002
767.00,-0.002
768.00,-0.002
769.00,-0.002
770.00,-0.002
771.00,-0.002
772.00,-0.002
773.00,-0.002
774.00,-0.002
775.00,-0.002
776.00,-0.002
777.00,-0.002
778.00,-0.002
779.00,-0.002
780.00,-0.002
781.00,-0.002
782.00,-0.002
783.00,-0.002
784.00,-0.002
785.00,-0.002
786.00,-0.002
787.00,-0.002
788.00,-0.002
789.00,-0.002
790.00,-0.002
791.00,-0.002
792.00,-0.002
793.00,-0.002
794.00,-0.002
795.00,-0.002
796.00,-0.002
797.00,-0.002
798.00,-0.002
799.00,-0.002
800.00,-0.002
