"File_240520_133218 - RawData"
"Wavelength nm.","Abs."
200.00,2.198
201.00,2.185
202.00,2.019
203.00,1.736
204.00,1.506
205.00,1.299
206.00,1.127
207.00,0.991
208.00,0.884
209.00,0.798
210.00,0.729
211.00,0.677
212.00,0.644
213.00,0.622
214.00,0.609
215.00,0.606
216.00,0.615
217.00,0.627
218.00,0.636
219.00,0.645
220.00,0.656
221.00,0.670
222.00,0.684
223.00,0.697
224.00,0.707
225.00,0.714
226.00,0.718
227.00,0.720
228.00,0.717
229.00,0.710
230.00,0.699
231.00,0.685
232.00,0.665
233.00,0.643
234.00,0.619
235.00,0.593
236.00,0.565
237.00,0.536
238.00,0.507
239.00,0.477
240.00,0.450
241.00,0.422
242.00,0.396
243.00,0.371
244.00,0.346
245.00,0.323
246.00,0.301
247.00,0.281
248.00,0.263
249.00,0.245
250.00,0.229
251.00,0.214
252.00,0.201
253.00,0.190
254.00,0.180
255.00,0.171
256.00,0.164
257.00,0.157
258.00,0.152
259.00,0.148
260.00,0.144
261.00,0.142
262.00,0.140
263.00,0.137
264.00,0.134
265.00,0.131
266.00,0.129
267.00,0.126
268.00,0.125
269.00,0.122
270.00,0.117
271.00,0.111
272.00,0.106
273.00,0.100
274.00,0.095
275.00,0.089
276.00,0.083
277.00,0.077
278.00,0.070
279.00,0.064
280.00,0.058
281.00,0.052
282.00,0.047
283.00,0.042
284.00,0.037
285.00,0.033
286.00,0.029
287.00,0.025
288.00,0.022
289.00,0.019
290.00,0.016
291.00,0.013
292.00,0.011
293.00,0.009
294.00,0.007
295.00,0.005
296.00,0.003
297.00,0.001
298.00,0.000
299.00,-0.001
300.00,-0.002
301.00,-0.003
302.00,-0.004
303.00,-0.005
304.00,-0.006
305.00,-0.007
306.00,-0.007
307.00,-0.008
308.00,-0.008
309.00,-0.008
310.00,-0.008
311.00,-0.009
312.00,-0.009
313.00,-0.009
314.00,-0.009
315.00,-0.009
316.00,-0.010
317.00,-0.010
318.00,-0.011
319.00,-0.011
320.00,-0.011
321.00,-0.011
322.00,-0.011
323.00,-0.012
324.00,-0.011
325.00,-0.012
326.00,-0.012
327.00,-0.011
328.00,-0.012
329.00,-0.012
330.00,-0.013
331.00,-0.012
332.00,-0.013
333.00,-0.013
334.00,-0.013
335.00,-0.013
336.00,-0.013
337.00,-0.014
338.00,-0.014
339.00,-0.014
340.00,-0.015
341.00,-0.014
342.00,-0.015
343.00,-0.015
344.00,-0.015
345.00,-0.016
346.00,-0.016
347.00,-0.015
348.00,-0.016
349.00,-0.015
350.00,-0.016
351.00,-0.017
352.00,-0.016
353.00,-0.017
354.00,-0.017
355.00,-0.017
356.00,-0.017
357.00,-0.017
358.00,-0.017
359.00,-0.017
360.00,-0.018
361.00,-0.018
362.00,-0.017
363.00,-0.018
364.00,-0.018
365.00,-0.018
366.00,-0.018
367.00,-0.018
368.00,-0.018
369.00,-0.018
370.00,-0.017
371.00,-0.017
372.00,-0.018
373.00,-0.017
374.00,-0.018
375.00,-0.016
376.00,-0.014
377.00,-0.014
378.00,-0.016
379.00,-0.015
380.00,-0.018
381.00,-0.016
382.00,-0.018
383.00,-0.016
384.00,-0.017
385.00,-0.017
386.00,-0.016
387.00,-0.016
388.00,-0.014
389.00,-0.015
390.00,-0.016
391.00,-0.016
392.00,-0.016
393.00,-0.015
394.00,-0.016
395.00,-0.015
396.00,-0.015
397.00,-0.014
398.00,-0.014
399.00,-0.014
400.00,-0.013
401.00,-0.015
402.00,-0.014
403.00,-0.015
404.00,-0.013
405.00,-0.013
406.00,-0.014
407.00,-0.013
408.00,-0.014
409.00,-0.014
410.00,-0.015
411.00,-0.013
412.00,-0.014
413.00,-0.014
414.00,-0.014
415.00,-0.013
416.00,-0.013
417.00,-0.013
418.00,-0.012
419.00,-0.013
420.00,-0.013
421.00,-0.014
422.00,-0.013
423.00,-0.014
424.00,-0.013
425.00,-0.014
426.00,-0.014
427.00,-0.014
428.00,-0.014
429.00,-0.014
430.00,-0.014
431.00,-0.014
432.00,-0.014
433.00,-0.013
434.00,-0.014
435.00,-0.014
436.00,-0.013
437.00,-0.013
438.00,-0.013
439.00,-0.013
440.00,-0.013
441.00,-0.013
442.00,-0.013
443.00,-0.013
444.00,-0.013
445.00,-0.013
446.00,-0.013
447.00,-0.013
448.00,-0.013
449.00,-0.013
450.00,-0.014
451.00,-0.014
452.00,-0.013
453.00,-0.013
454.00,-0.013
455.00,-0.013
456.00,-0.013
457.00,-0.013
458.00,-0.013
459.00,-0.013
460.00,-0.013
461.00,-0.013
462.00,-0.013
463.00,-0.013
464.00,-0.013
465.00,-0.013
466.00,-0.013
467.00,-0.013
468.00,-0.013
469.00,-0.013
470.00,-0.013
471.00,-0.013
472.00,-0.013
473.00,-0.013
474.00,-0.013
475.00,-0.013
476.00,-0.013
477.00,-0.013
478.00,-0.013
479.00,-0.013
480.00,-0.013
481.00,-0.013
482.00,-0.013
483.00,-0.013
484.00,-0.013
485.00,-0.013
486.00,-0.013
487.00,-0.013
488.00,-0.013
489.00,-0.013
490.00,-0.013
491.00,-0.013
492.00,-0.013
493.00,-0.013
494.00,-0.013
495.00,-0.013
496.00,-0.012
497.00,-0.013
498.00,-0.013
499.00,-0.013
500.00,-0.013
501.00,-0.012
502.00,-0.012
503.00,-0.012
504.00,-0.013
505.00,-0.012
506.00,-0.013
507.00,-0.013
508.00,-0.012
509.00,-0.013
510.00,-0.012
511.00,-0.012
512.00,-0.013
513.00,-0.012
514.00,-0.012
515.00,-0.012
516.00,-0.012
517.00,-0.012
518.00,-0.012
519.00,-0.012
520.00,-0.012
521.00,-0.012
522.00,-0.012
523.00,-0.012
524.00,-0.012
525.00,-0.012
526.00,-0.012
527.00,-0.012
528.00,-0.012
529.00,-0.012
530.00,-0.012
531.00,-0.012
532.00,-0.012
533.00,-0.012
534.00,-0.012
535.00,-0.012
536.00,-0.012
537.00,-0.012
538.00,-0.011
539.00,-0.012
540.00,-0.012
541.00,-0.011
542.00,-0.012
543.00,-0.011
544.00,-0.011
545.00,-0.011
546.00,-0.011
547.00,-0.011
548.00,-0.011
549.00,-0.011
550.00,-0.011
551.00,-0.011
552.00,-0.011
553.00,-0.011
554.00,-0.011
555.00,-0.011
556.00,-0.011
557.00,-0.011
558.00,-0.011
559.00,-0.011
560.00,-0.011
561.00,-0.011
562.00,-0.011
563.00,-0.011
564.00,-0.011
565.00,-0.011
566.00,-0.011
567.00,-0.011
568.00,-0.011
569.00,-0.011
570.00,-0.011
571.00,-0.011
572.00,-0.011
573.00,-0.011
574.00,-0.011
575.00,-0.011
576.00,-0.011
577.00,-0.011
578.00,-0.011
579.00,-0.011
580.00,-0.011
581.00,-0.011
582.00,-0.011
583.00,-0.011
584.00,-0.011
585.00,-0.011
586.00,-0.011
587.00,-0.011
588.00,-0.011
589.00,-0.011
590.00,-0.011
591.00,-0.011
592.00,-0.011
593.00,-0.011
594.00,-0.011
595.00,-0.011
596.00,-0.011
597.00,-0.011
598.00,-0.011
599.00,-0.011
600.00,-0.011
601.00,-0.011
602.00,-0.011
603.00,-0.011
604.00,-0.011
605.00,-0.011
606.00,-0.011
607.00,-0.011
608.00,-0.011
609.00,-0.011
610.00,-0.011
611.00,-0.011
612.00,-0.011
613.00,-0.011
614.00,-0.011
615.00,-0.011
616.00,-0.011
617.00,-0.011
618.00,-0.011
619.00,-0.011
620.00,-0.011
621.00,-0.011
622.00,-0.011
623.00,-0.011
624.00,-0.011
625.00,-0.011
626.00,-0.011
627.00,-0.011
628.00,-0.011
629.00,-0.011
630.00,-0.011
631.00,-0.011
632.00,-0.011
633.00,-0.011
634.00,-0.011
635.00,-0.011
636.00,-0.011
637.00,-0.011
638.00,-0.011
639.00,-0.011
640.00,-0.011
641.00,-0.011
642.00,-0.011
643.00,-0.011
644.00,-0.011
645.00,-0.011
646.00,-0.011
647.00,-0.011
648.00,-0.011
649.00,-0.011
650.00,-0.011
651.00,-0.011
652.00,-0.011
653.00,-0.011
654.00,-0.011
655.00,-0.011
656.00,-0.011
657.00,-0.011
658.00,-0.011
659.00,-0.011
660.00,-0.011
661.00,-0.011
662.00,-0.011
663.00,-0.011
664.00,-0.011
665.00,-0.011
666.00,-0.011
667.00,-0.011
668.00,-0.011
669.00,-0.011
670.00,-0.011
671.00,-0.011
672.00,-0.011
673.00,-0.011
674.00,-0.011
675.00,-0.011
676.00,-0.011
677.00,-0.011
678.00,-0.011
679.00,-0.011
680.00,-0.011
681.00,-0.011
682.00,-0.011
683.00,-0.011
684.00,-0.011
685.00,-0.010
686.00,-0.011
687.00,-0.011
688.00,-0.011
689.00,-0.010
690.00,-0.010
691.00,-0.010
692.00,-0.010
693.00,-0.010
694.00,-0.010
695.00,-0.010
696.00,-0.010
697.00,-0.010
698.00,-0.010
699.00,-0.010
700.00,-0.010
701.00,-0.010
702.00,-0.010
703.00,-0.010
704.00,-0.010
705.00,-0.010
706.00,-0.010
707.00,-0.010
708.00,-0.010
709.00,-0.010
710.00,-0.010
711.00,-0.010
712.00,-0.010
713.00,-0.010
714.00,-0.010
715.00,-0.010
716.00,-0.010
717.00,-0.010
718.00,-0.010
719.00,-0.010
720.00,-0.010
721.00,-0.010
722.00,-0.010
723.00,-0.010
724.00,-0.010
725.00,-0.010
726.00,-0.010
727.00,-0.010
728.00,-0.010
729.00,-0.010
730.00,-0.010
731.00,-0.010
732.00,-0.010
733.00,-0.010
734.00,-0.010
735.00,-0.010
736.00,-0.010
737.00,-0.010
738.00,-0.010
739.00,-0.010
740.00,-0.010
741.00,-0.010
742.00,-0.010
743.00,-0.010
744.00,-0.010
745.00,-0.010
746.00,-0.010
747.00,-0.010
748.00,-0.010
749.00,-0.010
750.00,-0.010
751.00,-0.010
752.00,-0.010
753.00,-0.010
754.00,-0.010
755.00,-0.010
756.00,-0.010
757.00,-0.010
758.00,-0.010
759.00,-0.010
760.00,-0.010
761.00,-0.010
762.00,-0.010
763.00,-0.010
764.00,-0.010
765.00,-0.010
766.00,-0.010
767.00,-0.010
768.00,-0.010
769.00,-0.010
770.00,-0.010
771.00,-0.009
772.00,-0.010
773.00,-0.009
774.00,-0.009
775.00,-0.009
776.00,-0.009
777.00,-0.010
778.00,-0.010
779.00,-0.010
780.00,-0.010
781.00,-0.010
782.00,-0.010
783.00,-0.010
784.00,-0.010
785.00,-0.010
786.00,-0.010
787.00,-0.010
788.00,-0.010
789.00,-0.010
790.00,-0.010
791.00,-0.010
792.00,-0.010
793.00,-0.010
794.00,-0.010
795.00,-0.010
796.00,-0.009
797.00,-0.010
798.00,-0.009
799.00,-0.010
800.00,-0.010
