"File_240520_131655 - RawData"
"Wavelength nm.","Abs."
200.00,2.294
201.00,2.152
202.00,2.020
203.00,1.775
204.00,1.551
205.00,1.346
206.00,1.184
207.00,1.050
208.00,0.945
209.00,0.858
210.00,0.788
211.00,0.735
212.00,0.697
213.00,0.671
214.00,0.649
215.00,0.641
216.00,0.645
217.00,0.652
218.00,0.654
219.00,0.657
220.00,0.664
221.00,0.675
222.00,0.687
223.00,0.699
224.00,0.708
225.00,0.715
226.00,0.719
227.00,0.720
228.00,0.717
229.00,0.711
230.00,0.699
231.00,0.684
232.00,0.665
233.00,0.642
234.00,0.618
235.00,0.592
236.00,0.564
237.00,0.536
238.00,0.507
239.00,0.478
240.00,0.450
241.00,0.424
242.00,0.398
243.00,0.373
244.00,0.350
245.00,0.327
246.00,0.307
247.00,0.288
248.00,0.271
249.00,0.255
250.00,0.240
251.00,0.226
252.00,0.215
253.00,0.205
254.00,0.196
255.00,0.189
256.00,0.183
257.00,0.178
258.00,0.174
259.00,0.171
260.00,0.169
261.00,0.168
262.00,0.167
263.00,0.165
264.00,0.162
265.00,0.160
266.00,0.158
267.00,0.156
268.00,0.155
269.00,0.153
270.00,0.147
271.00,0.141
272.00,0.135
273.00,0.129
274.00,0.123
275.00,0.117
276.00,0.110
277.00,0.103
278.00,0.096
279.00,0.089
280.00,0.082
281.00,0.076
282.00,0.069
283.00,0.064
284.00,0.059
285.00,0.053
286.00,0.049
287.00,0.044
288.00,0.040
289.00,0.036
290.00,0.033
291.00,0.029
292.00,0.026
293.00,0.023
294.00,0.020
295.00,0.017
296.00,0.015
297.00,0.013
298.00,0.011
299.00,0.009
300.00,0.008
301.00,0.006
302.00,0.005
303.00,0.004
304.00,0.003
305.00,0.001
306.00,0.000
307.00,-0.000
308.00,-0.000
309.00,-0.001
310.00,-0.002
311.00,-0.002
312.00,-0.003
313.00,-0.003
314.00,-0.003
315.00,-0.003
316.00,-0.003
317.00,-0.004
318.00,-0.004
319.00,-0.004
320.00,-0.005
321.00,-0.005
322.00,-0.005
323.00,-0.006
324.00,-0.006
325.00,-0.006
326.00,-0.006
327.00,-0.006
328.00,-0.006
329.00,-0.006
330.00,-0.006
331.00,-0.006
332.00,-0.007
333.00,-0.007
334.00,-0.007
335.00,-0.008
336.00,-0.008
337.00,-0.008
338.00,-0.009
339.00,-0.009
340.00,-0.009
341.00,-0.008
342.00,-0.009
343.00,-0.009
344.00,-0.010
345.00,-0.010
346.00,-0.010
347.00,-0.010
348.00,-0.012
349.00,-0.011
350.00,-0.011
351.00,-0.011
352.00,-0.010
353.00,-0.011
354.00,-0.011
355.00,-0.012
356.00,-0.012
357.00,-0.013
358.00,-0.013
359.00,-0.013
360.00,-0.013
361.00,-0.013
362.00,-0.013
363.00,-0.013
364.00,-0.013
365.00,-0.013
366.00,-0.013
367.00,-0.013
368.00,-0.013
369.00,-0.013
370.00,-0.013
371.00,-0.013
372.00,-0.013
373.00,-0.013
374.00,-0.013
375.00,-0.010
376.00,-0.011
377.00,-0.014
378.00,-0.011
379.00,-0.012
380.00,-0.012
381.00,-0.011
382.00,-0.014
383.00,-0.013
384.00,-0.012
385.00,-0.012
386.00,-0.012
387.00,-0.013
388.00,-0.012
389.00,-0.011
390.00,-0.013
391.00,-0.013
392.00,-0.013
393.00,-0.011
394.00,-0.012
395.00,-0.013
396.00,-0.013
397.00,-0.010
398.00,-0.011
399.00,-0.011
400.00,-0.012
401.00,-0.013
402.00,-0.013
403.00,-0.012
404.00,-0.011
405.00,-0.012
406.00,-0.011
407.00,-0.011
408.00,-0.011
409.00,-0.011
410.00,-0.011
411.00,-0.011
412.00,-0.011
413.00,-0.011
414.00,-0.011
415.00,-0.011
416.00,-0.011
417.00,-0.010
418.00,-0.010
419.00,-0.011
420.00,-0.011
421.00,-0.011
422.00,-0.011
423.00,-0.011
424.00,-0.010
425.00,-0.011
426.00,-0.011
427.00,-0.011
428.00,-0.011
429.00,-0.011
430.00,-0.011
431.00,-0.011
432.00,-0.011
433.00,-0.011
434.00,-0.011
435.00,-0.011
436.00,-0.011
437.00,-0.011
438.00,-0.011
439.00,-0.011
440.00,-0.011
441.00,-0.011
442.00,-0.011
443.00,-0.011
444.00,-0.011
445.00,-0.011
446.00,-0.011
447.00,-0.011
448.00,-0.011
449.00,-0.011
450.00,-0.011
451.00,-0.011
452.00,-0.011
453.00,-0.011
454.00,-0.011
455.00,-0.011
456.00,-0.011
457.00,-0.011
458.00,-0.011
459.00,-0.011
460.00,-0.011
461.00,-0.011
462.00,-0.011
463.00,-0.011
464.00,-0.011
465.00,-0.011
466.00,-0.011
467.00,-0.011
468.00,-0.011
469.00,-0.011
470.00,-0.011
471.00,-0.011
472.00,-0.011
473.00,-0.011
474.00,-0.011
475.00,-0.011
476.00,-0.011
477.00,-0.011
478.00,-0.011
479.00,-0.011
480.00,-0.011
481.00,-0.011
482.00,-0.011
483.00,-0.010
484.00,-0.011
485.00,-0.010
486.00,-0.011
487.00,-0.011
488.00,-0.010
489.00,-0.010
490.00,-0.011
491.00,-0.010
492.00,-0.010
493.00,-0.010
494.00,-0.010
495.00,-0.010
496.00,-0.010
497.00,-0.010
498.00,-0.010
499.00,-0.010
500.00,-0.010
501.00,-0.010
502.00,-0.010
503.00,-0.010
504.00,-0.010
505.00,-0.010
506.00,-0.010
507.00,-0.010
508.00,-0.010
509.00,-0.010
510.00,-0.010
511.00,-0.010
512.00,-0.010
513.00,-0.010
514.00,-0.010
515.00,-0.010
516.00,-0.010
517.00,-0.010
518.00,-0.010
519.00,-0.010
520.00,-0.010
521.00,-0.010
522.00,-0.010
523.00,-0.010
524.00,-0.010
525.00,-0.010
526.00,-0.010
527.00,-0.010
528.00,-0.010
529.00,-0.010
530.00,-0.010
531.00,-0.010
532.00,-0.010
533.00,-0.010
534.00,-0.010
535.00,-0.010
536.00,-0.009
537.00,-0.009
538.00,-0.009
539.00,-0.009
540.00,-0.010
541.00,-0.009
542.00,-0.009
543.00,-0.010
544.00,-0.009
545.00,-0.009
546.00,-0.009
547.00,-0.009
548.00,-0.009
549.00,-0.009
550.00,-0.009
551.00,-0.009
552.00,-0.009
553.00,-0.009
554.00,-0.009
555.00,-0.009
556.00,-0.009
557.00,-0.009
558.00,-0.009
559.00,-0.009
560.00,-0.009
561.00,-0.009
562.00,-0.009
563.00,-0.009
564.00,-0.009
565.00,-0.009
566.00,-0.009
567.00,-0.009
568.00,-0.009
569.00,-0.009
570.00,-0.009
571.00,-0.009
572.00,-0.009
573.00,-0.009
574.00,-0.009
575.00,-0.009
576.00,-0.009
577.00,-0.009
578.00,-0.009
579.00,-0.009
580.00,-0.009
581.00,-0.009
582.00,-0.009
583.00,-0.009
584.00,-0.009
585.00,-0.009
586.00,-0.009
587.00,-0.009
588.00,-0.009
589.00,-0.009
590.00,-0.009
591.00,-0.009
592.00,-0.009
593.00,-0.009
594.00,-0.009
595.00,-0.009
596.00,-0.009
597.00,-0.009
598.00,-0.009
599.00,-0.009
600.00,-0.009
601.00,-0.009
602.00,-0.009
603.00,-0.009
604.00,-0.009
605.00,-0.009
606.00,-0.009
607.00,-0.009
608.00,-0.009
609.00,-0.009
610.00,-0.009
611.00,-0.009
612.00,-0.009
613.00,-0.009
614.00,-0.009
615.00,-0.009
616.00,-0.009
617.00,-0.009
618.00,-0.009
619.00,-0.009
620.00,-0.009
621.00,-0.009
622.00,-0.009
623.00,-0.009
624.00,-0.009
625.00,-0.009
626.00,-0.010
627.00,-0.010
628.00,-0.009
629.00,-0.010
630.00,-0.009
631.00,-0.009
632.00,-0.009
633.00,-0.009
634.00,-0.009
635.00,-0.009
636.00,-0.009
637.00,-0.009
638.00,-0.009
639.00,-0.009
640.00,-0.009
641.00,-0.009
642.00,-0.010
643.00,-0.009
644.00,-0.009
645.00,-0.009
646.00,-0.009
647.00,-0.009
648.00,-0.009
649.00,-0.009
650.00,-0.009
651.00,-0.009
652.00,-0.009
653.00,-0.009
654.00,-0.009
655.00,-0.009
656.00,-0.009
657.00,-0.009
658.00,-0.009
659.00,-0.009
660.00,-0.009
661.00,-0.009
662.00,-0.009
663.00,-0.009
664.00,-0.009
665.00,-0.009
666.00,-0.009
667.00,-0.009
668.00,-0.009
669.00,-0.009
670.00,-0.009
671.00,-0.009
672.00,-0.009
673.00,-0.009
674.00,-0.009
675.00,-0.009
676.00,-0.009
677.00,-0.009
678.00,-0.009
679.00,-0.009
680.00,-0.009
681.00,-0.009
682.00,-0.009
683.00,-0.009
684.00,-0.009
685.00,-0.009
686.00,-0.009
687.00,-0.009
688.00,-0.009
689.00,-0.009
690.00,-0.009
691.00,-0.009
692.00,-0.009
693.00,-0.009
694.00,-0.009
695.00,-0.009
696.00,-0.009
697.00,-0.009
698.00,-0.009
699.00,-0.009
700.00,-0.009
701.00,-0.009
702.00,-0.009
703.00,-0.009
704.00,-0.009
705.00,-0.009
706.00,-0.009
707.00,-0.009
708.00,-0.009
709.00,-0.009
710.00,-0.009
711.00,-0.009
712.00,-0.009
713.00,-0.009
714.00,-0.009
715.00,-0.009
716.00,-0.009
717.00,-0.009
718.00,-0.009
719.00,-0.009
720.00,-0.009
721.00,-0.009
722.00,-0.009
723.00,-0.009
724.00,-0.009
725.00,-0.009
726.00,-0.008
727.00,-0.009
728.00,-0.009
729.00,-0.009
730.00,-0.009
731.00,-0.009
732.00,-0.009
733.00,-0.009
734.00,-0.009
735.00,-0.008
736.00,-0.008
737.00,-0.009
738.00,-0.008
739.00,-0.009
740.00,-0.008
741.00,-0.008
742.00,-0.008
743.00,-0.008
744.00,-0.008
745.00,-0.009
746.00,-0.009
747.00,-0.009
748.00,-0.008
749.00,-0.009
750.00,-0.008
751.00,-0.009
752.00,-0.009
753.00,-0.009
754.00,-0.008
755.00,-0.008
756.00,-0.008
757.00,-0.008
758.00,-0.008
759.00,-0.008
760.00,-0.008
761.00,-0.008
762.00,-0.008
763.00,-0.008
764.00,-0.008
765.00,-0.008
766.00,-0.008
767.00,-0.008
768.00,-0.008
769.00,-0.008
770.00,-0.008
771.00,-0.008
772.00,-0.008
773.00,-0.008
774.00,-0.008
775.00,-0.008
776.00,-0.008
777.00,-0.008
778.00,-0.008
779.00,-0.008
780.00,-0.008
781.00,-0.008
782.00,-0.008
783.00,-0.008
784.00,-0.008
785.00,-0.008
786.00,-0.008
787.00,-0.008
788.00,-0.008
789.00,-0.008
790.00,-0.008
791.00,-0.008
792.00,-0.008
793.00,-0.008
794.00,-0.008
795.00,-0.008
796.00,-0.008
797.00,-0.008
798.00,-0.008
799.00,-0.008
800.00,-0.008
