"File_240519_215108 - RawData"
"Wavelength nm.","Abs."
200.00,2.099
201.00,2.096
202.00,1.949
203.00,1.747
204.00,1.518
205.00,1.302
206.00,1.132
207.00,0.995
208.00,0.887
209.00,0.802
210.00,0.737
211.00,0.690
212.00,0.659
213.00,0.642
214.00,0.638
215.00,0.645
216.00,0.661
217.00,0.677
218.00,0.693
219.00,0.709
220.00,0.727
221.00,0.743
222.00,0.758
223.00,0.771
224.00,0.780
225.00,0.786
226.00,0.789
227.00,0.788
228.00,0.784
229.00,0.774
230.00,0.761
231.00,0.743
232.00,0.721
233.00,0.695
234.00,0.667
235.00,0.637
236.00,0.606
237.00,0.575
238.00,0.544
239.00,0.512
240.00,0.482
241.00,0.452
242.00,0.423
243.00,0.394
244.00,0.367
245.00,0.340
246.00,0.315
247.00,0.291
248.00,0.269
249.00,0.247
250.00,0.227
251.00,0.207
252.00,0.190
253.00,0.174
254.00,0.158
255.00,0.145
256.00,0.133
257.00,0.122
258.00,0.113
259.00,0.104
260.00,0.096
261.00,0.089
262.00,0.083
263.00,0.077
264.00,0.072
265.00,0.067
266.00,0.062
267.00,0.058
268.00,0.055
269.00,0.051
270.00,0.047
271.00,0.042
272.00,0.038
273.00,0.034
274.00,0.030
275.00,0.026
276.00,0.022
277.00,0.018
278.00,0.014
279.00,0.011
280.00,0.007
281.00,0.004
282.00,0.002
283.00,0.000
284.00,-0.002
285.00,-0.003
286.00,-0.004
287.00,-0.004
288.00,-0.005
289.00,-0.006
290.00,-0.005
291.00,-0.006
292.00,-0.006
293.00,-0.006
294.00,-0.006
295.00,-0.006
296.00,-0.006
297.00,-0.006
298.00,-0.005
299.00,-0.005
300.00,-0.005
301.00,-0.005
302.00,-0.005
303.00,-0.004
304.00,-0.004
305.00,-0.005
306.00,-0.005
307.00,-0.005
308.00,-0.005
309.00,-0.005
310.00,-0.004
311.00,-0.004
312.00,-0.004
313.00,-0.004
314.00,-0.004
315.00,-0.004
316.00,-0.004
317.00,-0.003
318.00,-0.004
319.00,-0.003
320.00,-0.004
321.00,-0.004
322.00,-0.003
323.00,-0.003
324.00,-0.003
325.00,-0.003
326.00,-0.004
327.00,-0.004
328.00,-0.004
329.00,-0.003
330.00,-0.002
331.00,-0.002
332.00,-0.002
333.00,-0.003
334.00,-0.003
335.00,-0.003
336.00,-0.003
337.00,-0.003
338.00,-0.003
339.00,-0.003
340.00,-0.003
341.00,-0.003
342.00,-0.002
343.00,-0.002
344.00,-0.002
345.00,-0.002
346.00,-0.002
347.00,-0.002
348.00,-0.003
349.00,-0.003
350.00,-0.003
351.00,-0.002
352.00,-0.003
353.00,-0.003
354.00,-0.003
355.00,-0.003
356.00,-0.003
357.00,-0.003
358.00,-0.003
359.00,-0.003
360.00,-0.003
361.00,-0.003
362.00,-0.003
363.00,-0.003
364.00,-0.004
365.00,-0.003
366.00,-0.003
367.00,-0.003
368.00,-0.003
369.00,-0.003
370.00,-0.003
371.00,-0.003
372.00,-0.003
373.00,-0.003
374.00,-0.002
375.00,0.000
376.00,0.001
377.00,0.000
378.00,-0.001
379.00,-0.004
380.00,0.001
381.00,0.000
382.00,-0.002
383.00,-0.002
384.00,-0.002
385.00,-0.001
386.00,-0.002
387.00,-0.003
388.00,-0.002
389.00,-0.003
390.00,-0.002
391.00,-0.001
392.00,-0.003
393.00,-0.003
394.00,-0.001
395.00,-0.003
396.00,-0.003
397.00,-0.003
398.00,-0.003
399.00,-0.002
400.00,-0.004
401.00,-0.002
402.00,-0.002
403.00,-0.003
404.00,-0.002
405.00,-0.003
406.00,-0.003
407.00,-0.003
408.00,-0.003
409.00,-0.003
410.00,-0.004
411.00,-0.004
412.00,-0.003
413.00,-0.003
414.00,-0.003
415.00,-0.003
416.00,-0.003
417.00,-0.003
418.00,-0.003
419.00,-0.003
420.00,-0.004
421.00,-0.003
422.00,-0.003
423.00,-0.003
424.00,-0.003
425.00,-0.002
426.00,-0.001
427.00,-0.002
428.00,-0.001
429.00,-0.001
430.00,-0.002
431.00,-0.001
432.00,-0.001
433.00,-0.001
434.00,-0.002
435.00,-0.002
436.00,-0.002
437.00,-0.002
438.00,-0.002
439.00,-0.002
440.00,-0.002
441.00,-0.002
442.00,-0.002
443.00,-0.001
444.00,-0.001
445.00,-0.002
446.00,-0.002
447.00,-0.002
448.00,-0.002
449.00,-0.001
450.00,-0.001
451.00,-0.001
452.00,-0.001
453.00,-0.002
454.00,-0.002
455.00,-0.002
456.00,-0.002
457.00,-0.002
458.00,-0.002
459.00,-0.002
460.00,-0.002
461.00,-0.002
462.00,-0.002
463.00,-0.002
464.00,-0.002
465.00,-0.002
466.00,-0.002
467.00,-0.002
468.00,-0.002
469.00,-0.002
470.00,-0.002
471.00,-0.002
472.00,-0.002
473.00,-0.002
474.00,-0.002
475.00,-0.002
476.00,-0.002
477.00,-0.002
478.00,-0.002
479.00,-0.002
480.00,-0.002
481.00,-0.002
482.00,-0.002
483.00,-0.002
484.00,-0.001
485.00,-0.001
486.00,-0.001
487.00,-0.001
488.00,-0.001
489.00,-0.001
490.00,-0.001
491.00,-0.001
492.00,-0.001
493.00,-0.001
494.00,-0.002
495.00,-0.002
496.00,-0.001
497.00,-0.002
498.00,-0.002
499.00,-0.002
500.00,-0.002
501.00,-0.002
502.00,-0.002
503.00,-0.002
504.00,-0.002
505.00,-0.002
506.00,-0.001
507.00,-0.001
508.00,-0.001
509.00,-0.002
510.00,-0.002
511.00,-0.001
512.00,-0.001
513.00,-0.001
514.00,-0.001
515.00,-0.001
516.00,-0.001
517.00,-0.001
518.00,-0.001
519.00,-0.001
520.00,-0.001
521.00,-0.002
522.00,-0.001
523.00,-0.001
524.00,-0.001
525.00,-0.001
526.00,-0.001
527.00,-0.001
528.00,-0.001
529.00,-0.001
530.00,-0.001
531.00,-0.001
532.00,-0.001
533.00,-0.001
534.00,-0.001
535.00,-0.001
536.00,-0.001
537.00,-0.001
538.00,-0.001
539.00,-0.001
540.00,-0.001
541.00,-0.001
542.00,-0.001
543.00,-0.001
544.00,-0.001
545.00,-0.001
546.00,-0.001
547.00,-0.001
548.00,-0.001
549.00,-0.001
550.00,-0.001
551.00,-0.001
552.00,-0.001
553.00,-0.001
554.00,-0.001
555.00,-0.001
556.00,-0.001
557.00,-0.001
558.00,-0.001
559.00,-0.001
560.00,-0.001
561.00,-0.001
562.00,-0.001
563.00,-0.001
564.00,-0.001
565.00,-0.001
566.00,-0.001
567.00,-0.001
568.00,-0.001
569.00,-0.001
570.00,-0.001
571.00,-0.001
572.00,-0.001
573.00,-0.001
574.00,-0.001
575.00,-0.001
576.00,-0.001
577.00,-0.001
578.00,-0.001
579.00,-0.001
580.00,-0.001
581.00,-0.001
582.00,-0.001
583.00,-0.001
584.00,-0.001
585.00,-0.001
586.00,-0.001
587.00,-0.001
588.00,-0.001
589.00,-0.001
590.00,-0.001
591.00,-0.001
592.00,-0.001
593.00,-0.001
594.00,-0.001
595.00,-0.001
596.00,-0.001
597.00,-0.001
598.00,-0.001
599.00,-0.001
600.00,0.002
601.00,0.001
602.00,0.001
603.00,0.001
604.00,0.002
605.00,0.001
606.00,0.001
607.00,0.001
608.00,0.002
609.00,0.001
610.00,0.001
611.00,0.001
612.00,0.001
613.00,0.001
614.00,0.002
615.00,0.001
616.00,0.002
617.00,0.001
618.00,0.001
619.00,0.001
620.00,0.001
621.00,0.002
622.00,0.002
623.00,0.002
624.00,0.002
625.00,0.002
626.00,0.002
627.00,0.002
628.00,0.002
629.00,0.002
630.00,0.002
631.00,0.002
632.00,0.002
633.00,0.002
634.00,0.002
635.00,0.002
636.00,0.002
637.00,0.002
638.00,0.002
639.00,0.002
640.00,0.002
641.00,0.002
642.00,0.002
643.00,0.002
644.00,0.002
645.00,0.002
646.00,0.002
647.00,0.002
648.00,0.002
649.00,0.002
650.00,0.002
651.00,0.002
652.00,0.002
653.00,0.002
654.00,0.003
655.00,0.003
656.00,0.003
657.00,0.003
658.00,0.003
659.00,0.003
660.00,0.003
661.00,0.002
662.00,0.002
663.00,0.002
664.00,0.002
665.00,0.002
666.00,0.002
667.00,0.002
668.00,0.002
669.00,0.002
670.00,0.002
671.00,0.002
672.00,0.002
673.00,0.002
674.00,0.002
675.00,0.002
676.00,0.002
677.00,0.002
678.00,0.002
679.00,0.002
680.00,0.002
681.00,0.002
682.00,0.002
683.00,0.002
684.00,0.002
685.00,0.002
686.00,0.002
687.00,0.002
688.00,0.002
689.00,0.002
690.00,0.002
691.00,0.002
692.00,0.002
693.00,0.002
694.00,0.002
695.00,0.002
696.00,0.002
697.00,0.002
698.00,0.002
699.00,0.002
700.00,0.002
701.00,0.002
702.00,0.002
703.00,0.002
704.00,0.002
705.00,0.002
706.00,0.002
707.00,0.002
708.00,0.002
709.00,0.002
710.00,0.002
711.00,0.002
712.00,0.002
713.00,0.002
714.00,0.002
715.00,0.002
716.00,0.002
717.00,0.002
718.00,0.002
719.00,0.002
720.00,0.002
721.00,0.002
722.00,0.002
723.00,0.002
724.00,0.002
725.00,0.002
726.00,0.002
727.00,0.002
728.00,0.002
729.00,0.002
730.00,0.002
731.00,0.002
732.00,0.002
733.00,0.002
734.00,0.002
735.00,0.002
736.00,0.002
737.00,0.002
738.00,0.002
739.00,0.001
740.00,0.002
741.00,0.002
742.00,0.002
743.00,0.002
744.00,0.002
745.00,0.001
746.00,0.002
747.00,0.002
748.00,0.002
749.00,0.002
750.00,0.002
751.00,0.002
752.00,0.002
753.00,0.002
754.00,0.002
755.00,0.002
756.00,0.002
757.00,0.002
758.00,0.002
759.00,0.002
760.00,0.002
761.00,0.002
762.00,0.002
763.00,0.002
764.00,0.002
765.00,0.002
766.00,0.002
767.00,0.002
768.00,0.002
769.00,0.002
770.00,0.002
771.00,0.002
772.00,0.002
773.00,0.002
774.00,0.002
775.00,0.002
776.00,0.002
777.00,0.002
778.00,0.002
779.00,0.002
780.00,0.002
781.00,0.002
782.00,0.002
783.00,0.002
784.00,0.002
785.00,0.002
786.00,0.002
787.00,0.002
788.00,0.002
789.00,0.002
790.00,0.002
791.00,0.002
792.00,0.002
793.00,0.002
794.00,0.002
795.00,0.002
796.00,0.002
797.00,0.002
798.00,0.002
799.00,0.002
800.00,0.002
