"File_240519_214036 - RawData"
"Wavelength nm.","Abs."
200.00,1.932
201.00,1.806
202.00,1.603
203.00,1.393
204.00,1.182
205.00,1.009
206.00,0.870
207.00,0.763
208.00,0.679
209.00,0.612
210.00,0.561
211.00,0.525
212.00,0.500
213.00,0.485
214.00,0.477
215.00,0.479
216.00,0.489
217.00,0.500
218.00,0.509
219.00,0.519
220.00,0.532
221.00,0.544
222.00,0.556
223.00,0.567
224.00,0.575
225.00,0.581
226.00,0.584
227.00,0.585
228.00,0.583
229.00,0.578
230.00,0.570
231.00,0.557
232.00,0.542
233.00,0.523
234.00,0.503
235.00,0.482
236.00,0.459
237.00,0.436
238.00,0.413
239.00,0.389
240.00,0.366
241.00,0.344
242.00,0.322
243.00,0.300
244.00,0.279
245.00,0.258
246.00,0.239
247.00,0.221
248.00,0.204
249.00,0.188
250.00,0.172
251.00,0.157
252.00,0.144
253.00,0.131
254.00,0.119
255.00,0.109
256.00,0.100
257.00,0.091
258.00,0.084
259.00,0.077
260.00,0.071
261.00,0.066
262.00,0.061
263.00,0.056
264.00,0.052
265.00,0.048
266.00,0.044
267.00,0.041
268.00,0.039
269.00,0.036
270.00,0.032
271.00,0.028
272.00,0.024
273.00,0.021
274.00,0.018
275.00,0.015
276.00,0.012
277.00,0.009
278.00,0.006
279.00,0.003
280.00,0.001
281.00,-0.002
282.00,-0.004
283.00,-0.005
284.00,-0.006
285.00,-0.007
286.00,-0.008
287.00,-0.008
288.00,-0.008
289.00,-0.009
290.00,-0.008
291.00,-0.008
292.00,-0.009
293.00,-0.008
294.00,-0.009
295.00,-0.008
296.00,-0.008
297.00,-0.008
298.00,-0.007
299.00,-0.007
300.00,-0.007
301.00,-0.007
302.00,-0.006
303.00,-0.006
304.00,-0.006
305.00,-0.007
306.00,-0.007
307.00,-0.006
308.00,-0.007
309.00,-0.006
310.00,-0.006
311.00,-0.006
312.00,-0.005
313.00,-0.006
314.00,-0.005
315.00,-0.005
316.00,-0.005
317.00,-0.005
318.00,-0.005
319.00,-0.005
320.00,-0.004
321.00,-0.005
322.00,-0.004
323.00,-0.005
324.00,-0.005
325.00,-0.004
326.00,-0.004
327.00,-0.004
328.00,-0.004
329.00,-0.004
330.00,-0.003
331.00,-0.004
332.00,-0.004
333.00,-0.004
334.00,-0.004
335.00,-0.004
336.00,-0.004
337.00,-0.003
338.00,-0.004
339.00,-0.004
340.00,-0.003
341.00,-0.003
342.00,-0.003
343.00,-0.003
344.00,-0.003
345.00,-0.003
346.00,-0.003
347.00,-0.003
348.00,-0.003
349.00,-0.003
350.00,-0.003
351.00,-0.003
352.00,-0.003
353.00,-0.003
354.00,-0.004
355.00,-0.003
356.00,-0.003
357.00,-0.003
358.00,-0.003
359.00,-0.003
360.00,-0.003
361.00,-0.003
362.00,-0.003
363.00,-0.003
364.00,-0.003
365.00,-0.004
366.00,-0.003
367.00,-0.002
368.00,-0.002
369.00,-0.003
370.00,-0.003
371.00,-0.002
372.00,-0.002
373.00,-0.003
374.00,-0.002
375.00,-0.001
376.00,0.002
377.00,0.000
378.00,-0.002
379.00,-0.003
380.00,0.000
381.00,0.001
382.00,-0.001
383.00,-0.003
384.00,-0.002
385.00,-0.003
386.00,-0.002
387.00,-0.003
388.00,-0.003
389.00,-0.004
390.00,-0.003
391.00,-0.003
392.00,-0.003
393.00,-0.003
394.00,-0.003
395.00,-0.004
396.00,-0.005
397.00,-0.003
398.00,-0.004
399.00,-0.004
400.00,-0.003
401.00,-0.003
402.00,-0.003
403.00,-0.004
404.00,-0.003
405.00,-0.004
406.00,-0.004
407.00,-0.004
408.00,-0.004
409.00,-0.004
410.00,-0.004
411.00,-0.005
412.00,-0.004
413.00,-0.004
414.00,-0.004
415.00,-0.004
416.00,-0.003
417.00,-0.004
418.00,-0.004
419.00,-0.004
420.00,-0.004
421.00,-0.004
422.00,-0.004
423.00,-0.004
424.00,-0.003
425.00,-0.002
426.00,-0.002
427.00,-0.002
428.00,-0.002
429.00,-0.002
430.00,-0.002
431.00,-0.002
432.00,-0.002
433.00,-0.002
434.00,-0.002
435.00,-0.002
436.00,-0.002
437.00,-0.002
438.00,-0.002
439.00,-0.002
440.00,-0.002
441.00,-0.001
442.00,-0.002
443.00,-0.002
444.00,-0.002
445.00,-0.002
446.00,-0.002
447.00,-0.002
448.00,-0.002
449.00,-0.002
450.00,-0.002
451.00,-0.002
452.00,-0.002
453.00,-0.002
454.00,-0.002
455.00,-0.002
456.00,-0.002
457.00,-0.002
458.00,-0.002
459.00,-0.002
460.00,-0.002
461.00,-0.002
462.00,-0.002
463.00,-0.002
464.00,-0.002
465.00,-0.002
466.00,-0.002
467.00,-0.002
468.00,-0.002
469.00,-0.002
470.00,-0.002
471.00,-0.002
472.00,-0.002
473.00,-0.002
474.00,-0.002
475.00,-0.002
476.00,-0.002
477.00,-0.002
478.00,-0.002
479.00,-0.002
480.00,-0.002
481.00,-0.002
482.00,-0.002
483.00,-0.002
484.00,-0.002
485.00,-0.002
486.00,-0.002
487.00,-0.002
488.00,-0.002
489.00,-0.002
490.00,-0.002
491.00,-0.002
492.00,-0.002
493.00,-0.002
494.00,-0.002
495.00,-0.002
496.00,-0.002
497.00,-0.002
498.00,-0.002
499.00,-0.002
500.00,-0.002
501.00,-0.002
502.00,-0.002
503.00,-0.002
504.00,-0.002
505.00,-0.002
506.00,-0.002
507.00,-0.002
508.00,-0.002
509.00,-0.002
510.00,-0.002
511.00,-0.001
512.00,-0.002
513.00,-0.002
514.00,-0.002
515.00,-0.002
516.00,-0.002
517.00,-0.002
518.00,-0.002
519.00,-0.002
520.00,-0.001
521.00,-0.002
522.00,-0.001
523.00,-0.001
524.00,-0.002
525.00,-0.001
526.00,-0.001
527.00,-0.002
528.00,-0.001
529.00,-0.001
530.00,-0.001
531.00,-0.001
532.00,-0.001
533.00,-0.001
534.00,-0.002
535.00,-0.001
536.00,-0.001
537.00,-0.001
538.00,-0.001
539.00,-0.001
540.00,-0.001
541.00,-0.001
542.00,-0.001
543.00,-0.001
544.00,-0.001
545.00,-0.001
546.00,-0.001
547.00,-0.001
548.00,-0.001
549.00,-0.001
550.00,-0.001
551.00,-0.001
552.00,-0.001
553.00,-0.001
554.00,-0.001
555.00,-0.001
556.00,-0.001
557.00,-0.001
558.00,-0.001
559.00,-0.001
560.00,-0.001
561.00,-0.001
562.00,-0.001
563.00,-0.001
564.00,-0.001
565.00,-0.001
566.00,-0.001
567.00,-0.001
568.00,-0.001
569.00,-0.001
570.00,-0.001
571.00,-0.001
572.00,-0.001
573.00,-0.001
574.00,-0.001
575.00,-0.001
576.00,-0.001
577.00,-0.001
578.00,-0.001
579.00,-0.001
580.00,-0.001
581.00,-0.001
582.00,-0.001
583.00,-0.001
584.00,-0.001
585.00,-0.001
586.00,-0.001
587.00,-0.001
588.00,-0.001
589.00,-0.001
590.00,-0.001
591.00,-0.001
592.00,-0.001
593.00,-0.001
594.00,-0.001
595.00,-0.001
596.00,-0.001
597.00,-0.001
598.00,-0.001
599.00,-0.001
600.00,0.001
601.00,0.001
602.00,0.001
603.00,0.001
604.00,0.001
605.00,0.001
606.00,0.001
607.00,0.001
608.00,0.001
609.00,0.001
610.00,0.001
611.00,0.001
612.00,0.001
613.00,0.001
614.00,0.001
615.00,0.001
616.00,0.001
617.00,0.001
618.00,0.001
619.00,0.001
620.00,0.001
621.00,0.001
622.00,0.001
623.00,0.001
624.00,0.001
625.00,0.001
626.00,0.001
627.00,0.001
628.00,0.001
629.00,0.001
630.00,0.001
631.00,0.001
632.00,0.001
633.00,0.001
634.00,0.001
635.00,0.001
636.00,0.001
637.00,0.001
638.00,0.001
639.00,0.001
640.00,0.001
641.00,0.001
642.00,0.001
643.00,0.001
644.00,0.001
645.00,0.001
646.00,0.001
647.00,0.001
648.00,0.001
649.00,0.001
650.00,0.001
651.00,0.001
652.00,0.001
653.00,0.001
654.00,0.001
655.00,0.001
656.00,0.001
657.00,0.001
658.00,0.001
659.00,0.001
660.00,0.001
661.00,0.001
662.00,0.001
663.00,0.001
664.00,0.001
665.00,0.001
666.00,0.001
667.00,0.001
668.00,0.001
669.00,0.001
670.00,0.001
671.00,0.001
672.00,0.001
673.00,0.001
674.00,0.001
675.00,0.001
676.00,0.001
677.00,0.001
678.00,0.001
679.00,0.001
680.00,0.001
681.00,0.001
682.00,0.001
683.00,0.001
684.00,0.001
685.00,0.001
686.00,0.001
687.00,0.001
688.00,0.001
689.00,0.001
690.00,0.001
691.00,0.001
692.00,0.001
693.00,0.001
694.00,0.001
695.00,0.001
696.00,0.001
697.00,0.001
698.00,0.001
699.00,0.001
700.00,0.001
701.00,0.001
702.00,0.001
703.00,0.001
704.00,0.001
705.00,0.001
706.00,0.001
707.00,0.001
708.00,0.001
709.00,0.001
710.00,0.001
711.00,0.001
712.00,0.001
713.00,0.001
714.00,0.002
715.00,0.001
716.00,0.002
717.00,0.002
718.00,0.002
719.00,0.002
720.00,0.002
721.00,0.002
722.00,0.002
723.00,0.002
724.00,0.002
725.00,0.002
726.00,0.002
727.00,0.002
728.00,0.002
729.00,0.002
730.00,0.002
731.00,0.002
732.00,0.002
733.00,0.002
734.00,0.002
735.00,0.002
736.00,0.002
737.00,0.002
738.00,0.002
739.00,0.002
740.00,0.002
741.00,0.002
742.00,0.002
743.00,0.002
744.00,0.002
745.00,0.002
746.00,0.002
747.00,0.002
748.00,0.002
749.00,0.002
750.00,0.002
751.00,0.002
752.00,0.002
753.00,0.002
754.00,0.002
755.00,0.002
756.00,0.002
757.00,0.002
758.00,0.002
759.00,0.002
760.00,0.002
761.00,0.002
762.00,0.002
763.00,0.002
764.00,0.002
765.00,0.002
766.00,0.002
767.00,0.002
768.00,0.002
769.00,0.002
770.00,0.002
771.00,0.001
772.00,0.002
773.00,0.002
774.00,0.002
775.00,0.002
776.00,0.002
777.00,0.002
778.00,0.002
779.00,0.001
780.00,0.002
781.00,0.002
782.00,0.002
783.00,0.002
784.00,0.002
785.00,0.002
786.00,0.002
787.00,0.002
788.00,0.002
789.00,0.002
790.00,0.002
791.00,0.002
792.00,0.002
793.00,0.002
794.00,0.002
795.00,0.002
796.00,0.002
797.00,0.002
798.00,0.002
799.00,0.002
800.00,0.002
