"File_240519_204510 - RawData"
"Wavelength nm.","Abs."
200.00,2.002
201.00,1.924
202.00,1.894
203.00,1.847
204.00,1.715
205.00,1.614
206.00,1.501
207.00,1.380
208.00,1.267
209.00,1.166
210.00,1.073
211.00,0.992
212.00,0.917
213.00,0.844
214.00,0.760
215.00,0.693
216.00,0.647
217.00,0.601
218.00,0.545
219.00,0.493
220.00,0.456
221.00,0.432
222.00,0.418
223.00,0.409
224.00,0.402
225.00,0.397
226.00,0.391
227.00,0.385
228.00,0.378
229.00,0.371
230.00,0.362
231.00,0.352
232.00,0.341
233.00,0.328
234.00,0.316
235.00,0.303
236.00,0.290
237.00,0.277
238.00,0.264
239.00,0.251
240.00,0.238
241.00,0.225
242.00,0.214
243.00,0.202
244.00,0.190
245.00,0.180
246.00,0.169
247.00,0.160
248.00,0.152
249.00,0.143
250.00,0.135
251.00,0.127
252.00,0.120
253.00,0.114
254.00,0.107
255.00,0.102
256.00,0.097
257.00,0.091
258.00,0.088
259.00,0.084
260.00,0.081
261.00,0.080
262.00,0.078
263.00,0.074
264.00,0.071
265.00,0.068
266.00,0.064
267.00,0.062
268.00,0.065
269.00,0.064
270.00,0.058
271.00,0.053
272.00,0.049
273.00,0.046
274.00,0.043
275.00,0.040
276.00,0.037
277.00,0.034
278.00,0.031
279.00,0.029
280.00,0.026
281.00,0.024
282.00,0.021
283.00,0.019
284.00,0.017
285.00,0.016
286.00,0.014
287.00,0.012
288.00,0.011
289.00,0.010
290.00,0.009
291.00,0.007
292.00,0.006
293.00,0.006
294.00,0.005
295.00,0.004
296.00,0.004
297.00,0.003
298.00,0.003
299.00,0.002
300.00,0.002
301.00,0.002
302.00,0.002
303.00,0.002
304.00,0.002
305.00,0.001
306.00,0.000
307.00,0.000
308.00,0.000
309.00,-0.000
310.00,0.000
311.00,0.000
312.00,0.000
313.00,-0.000
314.00,-0.000
315.00,-0.000
316.00,-0.000
317.00,0.000
318.00,-0.000
319.00,-0.000
320.00,-0.001
321.00,-0.001
322.00,-0.000
323.00,-0.000
324.00,-0.001
325.00,-0.001
326.00,-0.001
327.00,-0.000
328.00,-0.001
329.00,-0.002
330.00,-0.001
331.00,-0.001
332.00,-0.001
333.00,-0.002
334.00,-0.001
335.00,-0.001
336.00,-0.001
337.00,-0.001
338.00,-0.002
339.00,-0.002
340.00,-0.002
341.00,-0.002
342.00,-0.002
343.00,-0.002
344.00,-0.002
345.00,-0.002
346.00,-0.002
347.00,-0.002
348.00,-0.002
349.00,-0.002
350.00,-0.001
351.00,-0.002
352.00,-0.003
353.00,-0.002
354.00,-0.002
355.00,-0.003
356.00,-0.003
357.00,-0.002
358.00,-0.003
359.00,-0.003
360.00,-0.003
361.00,-0.003
362.00,-0.003
363.00,-0.003
364.00,-0.003
365.00,-0.003
366.00,-0.003
367.00,-0.003
368.00,-0.003
369.00,-0.004
370.00,-0.003
371.00,-0.002
372.00,-0.003
373.00,-0.003
374.00,-0.003
375.00,-0.003
376.00,-0.007
377.00,-0.003
378.00,-0.008
379.00,-0.005
380.00,-0.005
381.00,-0.003
382.00,-0.003
383.00,-0.005
384.00,-0.005
385.00,-0.006
386.00,-0.006
387.00,-0.005
388.00,-0.005
389.00,-0.005
390.00,-0.006
391.00,-0.005
392.00,-0.004
393.00,-0.006
394.00,-0.006
395.00,-0.006
396.00,-0.007
397.00,-0.006
398.00,-0.007
399.00,-0.006
400.00,-0.005
401.00,-0.005
402.00,-0.005
403.00,-0.006
404.00,-0.007
405.00,-0.007
406.00,-0.005
407.00,-0.006
408.00,-0.007
409.00,-0.007
410.00,-0.007
411.00,-0.007
412.00,-0.006
413.00,-0.006
414.00,-0.006
415.00,-0.007
416.00,-0.006
417.00,-0.005
418.00,-0.006
419.00,-0.007
420.00,-0.006
421.00,-0.006
422.00,-0.007
423.00,-0.005
424.00,-0.005
425.00,-0.003
426.00,-0.003
427.00,-0.003
428.00,-0.003
429.00,-0.003
430.00,-0.004
431.00,-0.003
432.00,-0.003
433.00,-0.003
434.00,-0.003
435.00,-0.003
436.00,-0.003
437.00,-0.003
438.00,-0.003
439.00,-0.003
440.00,-0.003
441.00,-0.003
442.00,-0.003
443.00,-0.003
444.00,-0.003
445.00,-0.003
446.00,-0.003
447.00,-0.003
448.00,-0.003
449.00,-0.004
450.00,-0.003
451.00,-0.003
452.00,-0.003
453.00,-0.003
454.00,-0.003
455.00,-0.003
456.00,-0.003
457.00,-0.003
458.00,-0.003
459.00,-0.003
460.00,-0.003
461.00,-0.003
462.00,-0.003
463.00,-0.003
464.00,-0.003
465.00,-0.003
466.00,-0.003
467.00,-0.003
468.00,-0.003
469.00,-0.003
470.00,-0.003
471.00,-0.003
472.00,-0.003
473.00,-0.003
474.00,-0.003
475.00,-0.003
476.00,-0.003
477.00,-0.003
478.00,-0.003
479.00,-0.003
480.00,-0.003
481.00,-0.003
482.00,-0.003
483.00,-0.003
484.00,-0.003
485.00,-0.003
486.00,-0.003
487.00,-0.003
488.00,-0.003
489.00,-0.003
490.00,-0.003
491.00,-0.003
492.00,-0.003
493.00,-0.003
494.00,-0.003
495.00,-0.003
496.00,-0.003
497.00,-0.003
498.00,-0.003
499.00,-0.003
500.00,-0.003
501.00,-0.003
502.00,-0.003
503.00,-0.003
504.00,-0.003
505.00,-0.003
506.00,-0.003
507.00,-0.003
508.00,-0.003
509.00,-0.003
510.00,-0.003
511.00,-0.003
512.00,-0.003
513.00,-0.003
514.00,-0.003
515.00,-0.003
516.00,-0.003
517.00,-0.003
518.00,-0.003
519.00,-0.003
520.00,-0.003
521.00,-0.003
522.00,-0.003
523.00,-0.003
524.00,-0.003
525.00,-0.003
526.00,-0.003
527.00,-0.003
528.00,-0.003
529.00,-0.003
530.00,-0.003
531.00,-0.003
532.00,-0.003
533.00,-0.003
534.00,-0.003
535.00,-0.003
536.00,-0.003
537.00,-0.003
538.00,-0.003
539.00,-0.003
540.00,-0.003
541.00,-0.003
542.00,-0.002
543.00,-0.003
544.00,-0.003
545.00,-0.003
546.00,-0.003
547.00,-0.003
548.00,-0.003
549.00,-0.003
550.00,-0.003
551.00,-0.003
552.00,-0.002
553.00,-0.003
554.00,-0.003
555.00,-0.003
556.00,-0.003
557.00,-0.003
558.00,-0.003
559.00,-0.003
560.00,-0.002
561.00,-0.003
562.00,-0.002
563.00,-0.002
564.00,-0.003
565.00,-0.002
566.00,-0.003
567.00,-0.002
568.00,-0.003
569.00,-0.002
570.00,-0.002
571.00,-0.002
572.00,-0.003
573.00,-0.002
574.00,-0.002
575.00,-0.002
576.00,-0.002
577.00,-0.002
578.00,-0.002
579.00,-0.003
580.00,-0.002
581.00,-0.002
582.00,-0.002
583.00,-0.002
584.00,-0.002
585.00,-0.002
586.00,-0.002
587.00,-0.002
588.00,-0.002
589.00,-0.002
590.00,-0.002
591.00,-0.002
592.00,-0.002
593.00,-0.003
594.00,-0.002
595.00,-0.002
596.00,-0.002
597.00,-0.002
598.00,-0.002
599.00,-0.002
600.00,-0.000
601.00,-0.000
602.00,-0.000
603.00,-0.000
604.00,-0.000
605.00,-0.000
606.00,-0.000
607.00,-0.000
608.00,-0.000
609.00,-0.000
610.00,-0.000
611.00,-0.000
612.00,-0.000
613.00,-0.000
614.00,-0.000
615.00,-0.000
616.00,-0.000
617.00,-0.000
618.00,-0.000
619.00,-0.000
620.00,-0.000
621.00,-0.000
622.00,-0.000
623.00,-0.000
624.00,-0.000
625.00,-0.000
626.00,-0.000
627.00,-0.000
628.00,-0.000
629.00,-0.000
630.00,-0.000
631.00,-0.000
632.00,-0.000
633.00,-0.000
634.00,-0.000
635.00,-0.000
636.00,-0.000
637.00,-0.000
638.00,-0.000
639.00,-0.000
640.00,-0.000
641.00,-0.000
642.00,-0.000
643.00,-0.000
644.00,-0.000
645.00,-0.000
646.00,-0.000
647.00,-0.000
648.00,-0.000
649.00,-0.000
650.00,-0.000
651.00,-0.000
652.00,-0.000
653.00,-0.000
654.00,-0.000
655.00,-0.000
656.00,-0.000
657.00,-0.000
658.00,-0.000
659.00,-0.000
660.00,-0.000
661.00,-0.000
662.00,-0.000
663.00,-0.000
664.00,-0.000
665.00,-0.000
666.00,-0.000
667.00,-0.000
668.00,-0.000
669.00,-0.000
670.00,-0.000
671.00,-0.000
672.00,-0.000
673.00,-0.000
674.00,0.000
675.00,-0.000
676.00,-0.000
677.00,-0.000
678.00,-0.000
679.00,-0.000
680.00,-0.000
681.00,-0.000
682.00,-0.000
683.00,-0.000
684.00,-0.000
685.00,-0.000
686.00,-0.000
687.00,-0.000
688.00,-0.000
689.00,-0.000
690.00,-0.000
691.00,-0.000
692.00,-0.000
693.00,-0.000
694.00,-0.000
695.00,-0.000
696.00,-0.000
697.00,-0.000
698.00,-0.000
699.00,-0.000
700.00,-0.000
701.00,-0.000
702.00,-0.000
703.00,-0.000
704.00,-0.000
705.00,-0.000
706.00,-0.000
707.00,-0.000
708.00,-0.000
709.00,-0.000
710.00,-0.000
711.00,-0.000
712.00,-0.000
713.00,-0.000
714.00,-0.000
715.00,-0.000
716.00,-0.000
717.00,-0.000
718.00,-0.000
719.00,-0.000
720.00,-0.000
721.00,-0.000
722.00,-0.000
723.00,-0.000
724.00,0.000
725.00,-0.000
726.00,0.000
727.00,0.000
728.00,0.000
729.00,-0.000
730.00,0.000
731.00,0.000
732.00,0.000
733.00,0.000
734.00,0.000
735.00,0.000
736.00,0.000
737.00,0.000
738.00,0.000
739.00,0.000
740.00,0.000
741.00,0.000
742.00,0.000
743.00,0.000
744.00,0.000
745.00,0.000
746.00,0.000
747.00,0.000
748.00,0.000
749.00,0.000
750.00,0.000
751.00,0.000
752.00,-0.000
753.00,0.000
754.00,-0.000
755.00,0.000
756.00,-0.000
757.00,-0.000
758.00,0.000
759.00,-0.000
760.00,0.000
761.00,0.000
762.00,-0.000
763.00,0.000
764.00,-0.000
765.00,-0.000
766.00,-0.000
767.00,-0.000
768.00,-0.000
769.00,-0.000
770.00,-0.000
771.00,-0.000
772.00,-0.000
773.00,-0.000
774.00,-0.000
775.00,-0.000
776.00,-0.000
777.00,-0.000
778.00,-0.000
779.00,-0.000
780.00,-0.000
781.00,-0.000
782.00,-0.000
783.00,-0.000
784.00,-0.000
785.00,-0.000
786.00,-0.000
787.00,-0.000
788.00,-0.000
789.00,-0.000
790.00,-0.000
791.00,-0.000
792.00,-0.000
793.00,-0.000
794.00,-0.000
795.00,-0.000
796.00,-0.000
797.00,-0.000
798.00,-0.000
799.00,-0.000
800.00,-0.000
