"File_240519_210454 - RawData"
"Wavelength nm.","Abs."
200.00,2.079
201.00,2.055
202.00,1.881
203.00,1.660
204.00,1.427
205.00,1.225
206.00,1.058
207.00,0.926
208.00,0.825
209.00,0.744
210.00,0.681
211.00,0.636
212.00,0.607
213.00,0.592
214.00,0.585
215.00,0.589
216.00,0.603
217.00,0.619
218.00,0.633
219.00,0.647
220.00,0.664
221.00,0.681
222.00,0.697
223.00,0.710
224.00,0.720
225.00,0.727
226.00,0.732
227.00,0.732
228.00,0.729
229.00,0.723
230.00,0.712
231.00,0.696
232.00,0.676
233.00,0.652
234.00,0.627
235.00,0.600
236.00,0.572
237.00,0.543
238.00,0.513
239.00,0.484
240.00,0.455
241.00,0.427
242.00,0.400
243.00,0.373
244.00,0.347
245.00,0.323
246.00,0.299
247.00,0.277
248.00,0.257
249.00,0.237
250.00,0.219
251.00,0.201
252.00,0.185
253.00,0.171
254.00,0.157
255.00,0.145
256.00,0.135
257.00,0.125
258.00,0.117
259.00,0.109
260.00,0.103
261.00,0.098
262.00,0.093
263.00,0.087
264.00,0.083
265.00,0.078
266.00,0.074
267.00,0.070
268.00,0.067
269.00,0.064
270.00,0.060
271.00,0.055
272.00,0.051
273.00,0.046
274.00,0.042
275.00,0.038
276.00,0.034
277.00,0.030
278.00,0.025
279.00,0.021
280.00,0.017
281.00,0.014
282.00,0.011
283.00,0.009
284.00,0.006
285.00,0.005
286.00,0.003
287.00,0.002
288.00,0.001
289.00,-0.000
290.00,-0.000
291.00,-0.001
292.00,-0.002
293.00,-0.002
294.00,-0.003
295.00,-0.003
296.00,-0.003
297.00,-0.003
298.00,-0.003
299.00,-0.004
300.00,-0.003
301.00,-0.003
302.00,-0.003
303.00,-0.003
304.00,-0.003
305.00,-0.004
306.00,-0.004
307.00,-0.004
308.00,-0.004
309.00,-0.004
310.00,-0.004
311.00,-0.003
312.00,-0.004
313.00,-0.004
314.00,-0.004
315.00,-0.003
316.00,-0.003
317.00,-0.003
318.00,-0.004
319.00,-0.003
320.00,-0.004
321.00,-0.004
322.00,-0.003
323.00,-0.003
324.00,-0.004
325.00,-0.003
326.00,-0.004
327.00,-0.004
328.00,-0.003
329.00,-0.004
330.00,-0.004
331.00,-0.004
332.00,-0.004
333.00,-0.004
334.00,-0.004
335.00,-0.004
336.00,-0.004
337.00,-0.004
338.00,-0.004
339.00,-0.004
340.00,-0.003
341.00,-0.004
342.00,-0.004
343.00,-0.003
344.00,-0.004
345.00,-0.003
346.00,-0.003
347.00,-0.004
348.00,-0.004
349.00,-0.003
350.00,-0.004
351.00,-0.004
352.00,-0.004
353.00,-0.004
354.00,-0.004
355.00,-0.004
356.00,-0.004
357.00,-0.004
358.00,-0.005
359.00,-0.004
360.00,-0.004
361.00,-0.004
362.00,-0.004
363.00,-0.004
364.00,-0.004
365.00,-0.004
366.00,-0.004
367.00,-0.004
368.00,-0.004
369.00,-0.004
370.00,-0.005
371.00,-0.004
372.00,-0.004
373.00,-0.004
374.00,-0.004
375.00,-0.004
376.00,-0.004
377.00,-0.003
378.00,-0.007
379.00,-0.004
380.00,-0.003
381.00,-0.001
382.00,-0.003
383.00,-0.006
384.00,-0.004
385.00,-0.004
386.00,-0.005
387.00,-0.005
388.00,-0.005
389.00,-0.006
390.00,-0.005
391.00,-0.003
392.00,-0.005
393.00,-0.005
394.00,-0.006
395.00,-0.005
396.00,-0.005
397.00,-0.005
398.00,-0.005
399.00,-0.006
400.00,-0.005
401.00,-0.004
402.00,-0.005
403.00,-0.006
404.00,-0.005
405.00,-0.005
406.00,-0.005
407.00,-0.005
408.00,-0.005
409.00,-0.005
410.00,-0.005
411.00,-0.006
412.00,-0.005
413.00,-0.004
414.00,-0.006
415.00,-0.005
416.00,-0.006
417.00,-0.004
418.00,-0.005
419.00,-0.005
420.00,-0.006
421.00,-0.006
422.00,-0.006
423.00,-0.005
424.00,-0.004
425.00,-0.003
426.00,-0.003
427.00,-0.003
428.00,-0.003
429.00,-0.003
430.00,-0.003
431.00,-0.003
432.00,-0.003
433.00,-0.003
434.00,-0.003
435.00,-0.003
436.00,-0.003
437.00,-0.003
438.00,-0.003
439.00,-0.003
440.00,-0.003
441.00,-0.003
442.00,-0.003
443.00,-0.003
444.00,-0.003
445.00,-0.003
446.00,-0.003
447.00,-0.003
448.00,-0.003
449.00,-0.003
450.00,-0.003
451.00,-0.003
452.00,-0.003
453.00,-0.003
454.00,-0.003
455.00,-0.003
456.00,-0.003
457.00,-0.003
458.00,-0.003
459.00,-0.003
460.00,-0.003
461.00,-0.003
462.00,-0.003
463.00,-0.003
464.00,-0.003
465.00,-0.003
466.00,-0.003
467.00,-0.003
468.00,-0.003
469.00,-0.003
470.00,-0.003
471.00,-0.003
472.00,-0.003
473.00,-0.003
474.00,-0.003
475.00,-0.003
476.00,-0.003
477.00,-0.003
478.00,-0.003
479.00,-0.003
480.00,-0.003
481.00,-0.003
482.00,-0.003
483.00,-0.003
484.00,-0.003
485.00,-0.003
486.00,-0.003
487.00,-0.003
488.00,-0.003
489.00,-0.003
490.00,-0.003
491.00,-0.003
492.00,-0.003
493.00,-0.003
494.00,-0.003
495.00,-0.003
496.00,-0.003
497.00,-0.003
498.00,-0.003
499.00,-0.003
500.00,-0.003
501.00,-0.003
502.00,-0.003
503.00,-0.003
504.00,-0.003
505.00,-0.002
506.00,-0.003
507.00,-0.003
508.00,-0.002
509.00,-0.003
510.00,-0.003
511.00,-0.003
512.00,-0.003
513.00,-0.003
514.00,-0.003
515.00,-0.003
516.00,-0.003
517.00,-0.003
518.00,-0.003
519.00,-0.003
520.00,-0.002
521.00,-0.003
522.00,-0.002
523.00,-0.002
524.00,-0.002
525.00,-0.002
526.00,-0.002
527.00,-0.002
528.00,-0.002
529.00,-0.002
530.00,-0.002
531.00,-0.002
532.00,-0.002
533.00,-0.002
534.00,-0.002
535.00,-0.002
536.00,-0.002
537.00,-0.002
538.00,-0.002
539.00,-0.002
540.00,-0.002
541.00,-0.002
542.00,-0.002
543.00,-0.002
544.00,-0.002
545.00,-0.002
546.00,-0.002
547.00,-0.002
548.00,-0.002
549.00,-0.002
550.00,-0.002
551.00,-0.002
552.00,-0.002
553.00,-0.002
554.00,-0.002
555.00,-0.002
556.00,-0.002
557.00,-0.002
558.00,-0.002
559.00,-0.002
560.00,-0.002
561.00,-0.002
562.00,-0.002
563.00,-0.002
564.00,-0.002
565.00,-0.002
566.00,-0.002
567.00,-0.002
568.00,-0.002
569.00,-0.002
570.00,-0.002
571.00,-0.002
572.00,-0.002
573.00,-0.002
574.00,-0.002
575.00,-0.002
576.00,-0.002
577.00,-0.002
578.00,-0.002
579.00,-0.002
580.00,-0.002
581.00,-0.002
582.00,-0.002
583.00,-0.002
584.00,-0.002
585.00,-0.002
586.00,-0.002
587.00,-0.002
588.00,-0.002
589.00,-0.002
590.00,-0.002
591.00,-0.002
592.00,-0.002
593.00,-0.002
594.00,-0.002
595.00,-0.002
596.00,-0.002
597.00,-0.002
598.00,-0.002
599.00,-0.002
600.00,0.001
601.00,0.000
602.00,0.000
603.00,0.001
604.00,0.001
605.00,0.000
606.00,0.000
607.00,0.000
608.00,0.000
609.00,0.000
610.00,0.000
611.00,0.000
612.00,0.000
613.00,0.000
614.00,0.001
615.00,0.000
616.00,0.000
617.00,0.001
618.00,0.000
619.00,0.001
620.00,0.001
621.00,0.001
622.00,0.000
623.00,0.001
624.00,0.001
625.00,0.000
626.00,0.000
627.00,0.001
628.00,0.001
629.00,0.001
630.00,0.000
631.00,0.000
632.00,0.000
633.00,0.000
634.00,0.000
635.00,0.001
636.00,0.000
637.00,0.000
638.00,0.001
639.00,0.001
640.00,0.001
641.00,0.001
642.00,0.001
643.00,0.000
644.00,0.000
645.00,0.000
646.00,0.000
647.00,0.000
648.00,0.000
649.00,0.000
650.00,0.000
651.00,0.000
652.00,0.000
653.00,0.000
654.00,0.000
655.00,0.000
656.00,0.000
657.00,0.000
658.00,0.000
659.00,0.000
660.00,0.000
661.00,0.000
662.00,0.000
663.00,0.000
664.00,0.000
665.00,0.000
666.00,0.000
667.00,0.000
668.00,0.000
669.00,0.000
670.00,0.001
671.00,0.000
672.00,0.000
673.00,0.001
674.00,0.001
675.00,0.000
676.00,0.000
677.00,0.000
678.00,0.000
679.00,0.000
680.00,0.000
681.00,0.000
682.00,0.000
683.00,0.000
684.00,0.000
685.00,0.000
686.00,0.000
687.00,0.000
688.00,0.001
689.00,0.000
690.00,0.000
691.00,0.000
692.00,0.000
693.00,0.000
694.00,0.000
695.00,0.000
696.00,0.000
697.00,0.000
698.00,0.000
699.00,0.000
700.00,0.001
701.00,0.000
702.00,0.000
703.00,0.000
704.00,0.000
705.00,0.001
706.00,0.001
707.00,0.000
708.00,0.000
709.00,0.001
710.00,0.000
711.00,0.001
712.00,0.001
713.00,0.001
714.00,0.001
715.00,0.001
716.00,0.001
717.00,0.001
718.00,0.001
719.00,0.001
720.00,0.001
721.00,0.001
722.00,0.001
723.00,0.001
724.00,0.001
725.00,0.001
726.00,0.001
727.00,0.001
728.00,0.001
729.00,0.001
730.00,0.001
731.00,0.001
732.00,0.001
733.00,0.001
734.00,0.001
735.00,0.001
736.00,0.001
737.00,0.001
738.00,0.001
739.00,0.001
740.00,0.001
741.00,0.001
742.00,0.001
743.00,0.001
744.00,0.001
745.00,0.001
746.00,0.001
747.00,0.001
748.00,0.001
749.00,0.001
750.00,0.001
751.00,0.001
752.00,0.001
753.00,0.001
754.00,0.001
755.00,0.001
756.00,0.001
757.00,0.001
758.00,0.001
759.00,0.001
760.00,0.001
761.00,0.001
762.00,0.001
763.00,0.001
764.00,0.001
765.00,0.001
766.00,0.001
767.00,0.001
768.00,0.001
769.00,0.001
770.00,0.001
771.00,0.001
772.00,0.001
773.00,0.001
774.00,0.001
775.00,0.001
776.00,0.001
777.00,0.001
778.00,0.001
779.00,0.001
780.00,0.001
781.00,0.001
782.00,0.001
783.00,0.001
784.00,0.001
785.00,0.001
786.00,0.001
787.00,0.001
788.00,0.001
789.00,0.001
790.00,0.001
791.00,0.001
792.00,0.001
793.00,0.001
794.00,0.001
795.00,0.001
796.00,0.001
797.00,0.001
798.00,0.001
799.00,0.001
800.00,0.001
