"File_240519_204949 - RawData"
"Wavelength nm.","Abs."
200.00,1.900
201.00,1.736
202.00,1.542
203.00,1.357
204.00,1.185
205.00,1.025
206.00,0.898
207.00,0.794
208.00,0.712
209.00,0.644
210.00,0.590
211.00,0.548
212.00,0.518
213.00,0.495
214.00,0.479
215.00,0.471
216.00,0.473
217.00,0.476
218.00,0.476
219.00,0.478
220.00,0.482
221.00,0.490
222.00,0.498
223.00,0.505
224.00,0.512
225.00,0.516
226.00,0.518
227.00,0.518
228.00,0.515
229.00,0.510
230.00,0.502
231.00,0.490
232.00,0.476
233.00,0.459
234.00,0.442
235.00,0.423
236.00,0.403
237.00,0.383
238.00,0.363
239.00,0.342
240.00,0.323
241.00,0.304
242.00,0.286
243.00,0.269
244.00,0.252
245.00,0.236
246.00,0.221
247.00,0.208
248.00,0.195
249.00,0.183
250.00,0.173
251.00,0.163
252.00,0.154
253.00,0.147
254.00,0.140
255.00,0.135
256.00,0.130
257.00,0.126
258.00,0.123
259.00,0.120
260.00,0.118
261.00,0.116
262.00,0.115
263.00,0.112
264.00,0.110
265.00,0.109
266.00,0.106
267.00,0.104
268.00,0.104
269.00,0.102
270.00,0.098
271.00,0.094
272.00,0.090
273.00,0.085
274.00,0.081
275.00,0.077
276.00,0.072
277.00,0.067
278.00,0.062
279.00,0.058
280.00,0.054
281.00,0.049
282.00,0.045
283.00,0.041
284.00,0.038
285.00,0.035
286.00,0.031
287.00,0.029
288.00,0.026
289.00,0.024
290.00,0.022
291.00,0.020
292.00,0.018
293.00,0.017
294.00,0.014
295.00,0.013
296.00,0.012
297.00,0.011
298.00,0.010
299.00,0.009
300.00,0.009
301.00,0.008
302.00,0.008
303.00,0.007
304.00,0.007
305.00,0.005
306.00,0.005
307.00,0.005
308.00,0.005
309.00,0.005
310.00,0.004
311.00,0.004
312.00,0.004
313.00,0.004
314.00,0.003
315.00,0.004
316.00,0.003
317.00,0.003
318.00,0.003
319.00,0.003
320.00,0.003
321.00,0.002
322.00,0.003
323.00,0.002
324.00,0.002
325.00,0.002
326.00,0.003
327.00,0.002
328.00,0.002
329.00,0.001
330.00,0.002
331.00,0.001
332.00,0.002
333.00,0.001
334.00,0.001
335.00,0.001
336.00,0.001
337.00,0.000
338.00,0.001
339.00,-0.000
340.00,0.000
341.00,-0.000
342.00,0.000
343.00,0.001
344.00,0.000
345.00,0.000
346.00,0.000
347.00,0.000
348.00,0.000
349.00,-0.000
350.00,-0.000
351.00,-0.000
352.00,-0.001
353.00,-0.002
354.00,-0.001
355.00,-0.001
356.00,-0.002
357.00,-0.001
358.00,-0.002
359.00,-0.001
360.00,-0.001
361.00,-0.002
362.00,-0.001
363.00,-0.001
364.00,-0.002
365.00,-0.002
366.00,-0.002
367.00,-0.001
368.00,-0.002
369.00,-0.002
370.00,-0.002
371.00,-0.002
372.00,-0.001
373.00,-0.002
374.00,-0.001
375.00,-0.002
376.00,-0.004
377.00,-0.001
378.00,-0.005
379.00,-0.004
380.00,-0.001
381.00,-0.003
382.00,-0.002
383.00,-0.005
384.00,-0.003
385.00,-0.005
386.00,-0.004
387.00,-0.003
388.00,-0.004
389.00,-0.004
390.00,-0.004
391.00,-0.004
392.00,-0.003
393.00,-0.004
394.00,-0.005
395.00,-0.005
396.00,-0.005
397.00,-0.005
398.00,-0.004
399.00,-0.004
400.00,-0.004
401.00,-0.004
402.00,-0.004
403.00,-0.005
404.00,-0.004
405.00,-0.004
406.00,-0.005
407.00,-0.005
408.00,-0.005
409.00,-0.005
410.00,-0.004
411.00,-0.006
412.00,-0.005
413.00,-0.005
414.00,-0.005
415.00,-0.004
416.00,-0.005
417.00,-0.004
418.00,-0.005
419.00,-0.005
420.00,-0.006
421.00,-0.005
422.00,-0.005
423.00,-0.005
424.00,-0.005
425.00,-0.002
426.00,-0.002
427.00,-0.002
428.00,-0.002
429.00,-0.002
430.00,-0.003
431.00,-0.002
432.00,-0.003
433.00,-0.002
434.00,-0.002
435.00,-0.003
436.00,-0.003
437.00,-0.002
438.00,-0.003
439.00,-0.003
440.00,-0.002
441.00,-0.002
442.00,-0.003
443.00,-0.002
444.00,-0.003
445.00,-0.003
446.00,-0.003
447.00,-0.002
448.00,-0.003
449.00,-0.003
450.00,-0.002
451.00,-0.003
452.00,-0.003
453.00,-0.003
454.00,-0.002
455.00,-0.003
456.00,-0.002
457.00,-0.003
458.00,-0.003
459.00,-0.003
460.00,-0.003
461.00,-0.002
462.00,-0.003
463.00,-0.003
464.00,-0.003
465.00,-0.003
466.00,-0.003
467.00,-0.003
468.00,-0.003
469.00,-0.003
470.00,-0.003
471.00,-0.003
472.00,-0.003
473.00,-0.003
474.00,-0.003
475.00,-0.003
476.00,-0.003
477.00,-0.003
478.00,-0.003
479.00,-0.003
480.00,-0.003
481.00,-0.003
482.00,-0.003
483.00,-0.003
484.00,-0.003
485.00,-0.003
486.00,-0.003
487.00,-0.002
488.00,-0.003
489.00,-0.003
490.00,-0.003
491.00,-0.003
492.00,-0.002
493.00,-0.002
494.00,-0.003
495.00,-0.002
496.00,-0.002
497.00,-0.003
498.00,-0.003
499.00,-0.003
500.00,-0.002
501.00,-0.003
502.00,-0.003
503.00,-0.003
504.00,-0.003
505.00,-0.002
506.00,-0.002
507.00,-0.002
508.00,-0.002
509.00,-0.002
510.00,-0.002
511.00,-0.002
512.00,-0.003
513.00,-0.003
514.00,-0.002
515.00,-0.002
516.00,-0.002
517.00,-0.003
518.00,-0.002
519.00,-0.002
520.00,-0.002
521.00,-0.002
522.00,-0.002
523.00,-0.002
524.00,-0.002
525.00,-0.002
526.00,-0.002
527.00,-0.002
528.00,-0.002
529.00,-0.002
530.00,-0.002
531.00,-0.002
532.00,-0.002
533.00,-0.002
534.00,-0.002
535.00,-0.002
536.00,-0.002
537.00,-0.002
538.00,-0.002
539.00,-0.002
540.00,-0.002
541.00,-0.002
542.00,-0.002
543.00,-0.002
544.00,-0.002
545.00,-0.002
546.00,-0.002
547.00,-0.002
548.00,-0.002
549.00,-0.002
550.00,-0.002
551.00,-0.002
552.00,-0.002
553.00,-0.002
554.00,-0.002
555.00,-0.002
556.00,-0.002
557.00,-0.002
558.00,-0.002
559.00,-0.002
560.00,-0.002
561.00,-0.002
562.00,-0.002
563.00,-0.002
564.00,-0.002
565.00,-0.002
566.00,-0.002
567.00,-0.002
568.00,-0.002
569.00,-0.002
570.00,-0.002
571.00,-0.002
572.00,-0.002
573.00,-0.002
574.00,-0.002
575.00,-0.002
576.00,-0.002
577.00,-0.002
578.00,-0.002
579.00,-0.002
580.00,-0.002
581.00,-0.002
582.00,-0.002
583.00,-0.002
584.00,-0.001
585.00,-0.002
586.00,-0.002
587.00,-0.002
588.00,-0.002
589.00,-0.002
590.00,-0.002
591.00,-0.002
592.00,-0.002
593.00,-0.002
594.00,-0.001
595.00,-0.002
596.00,-0.001
597.00,-0.002
598.00,-0.002
599.00,-0.002
600.00,0.000
601.00,0.000
602.00,0.000
603.00,0.000
604.00,0.001
605.00,0.000
606.00,0.000
607.00,0.000
608.00,0.001
609.00,0.001
610.00,0.000
611.00,0.000
612.00,0.000
613.00,0.000
614.00,0.000
615.00,0.000
616.00,0.000
617.00,0.001
618.00,0.000
619.00,0.001
620.00,0.001
621.00,0.000
622.00,0.000
623.00,0.001
624.00,0.001
625.00,0.001
626.00,0.000
627.00,0.000
628.00,0.001
629.00,0.000
630.00,0.000
631.00,0.001
632.00,0.000
633.00,0.001
634.00,0.000
635.00,0.000
636.00,0.000
637.00,0.000
638.00,0.000
639.00,0.001
640.00,0.001
641.00,0.001
642.00,0.000
643.00,0.000
644.00,0.000
645.00,0.000
646.00,0.000
647.00,0.000
648.00,0.000
649.00,0.000
650.00,0.000
651.00,0.000
652.00,0.000
653.00,0.000
654.00,0.000
655.00,0.000
656.00,0.000
657.00,0.000
658.00,0.000
659.00,0.001
660.00,0.001
661.00,0.000
662.00,0.001
663.00,0.000
664.00,0.000
665.00,0.000
666.00,0.001
667.00,0.000
668.00,0.001
669.00,0.000
670.00,0.001
671.00,0.001
672.00,0.000
673.00,0.000
674.00,0.001
675.00,0.001
676.00,0.001
677.00,0.001
678.00,0.001
679.00,0.001
680.00,0.001
681.00,0.001
682.00,0.000
683.00,0.001
684.00,0.001
685.00,0.001
686.00,0.000
687.00,0.000
688.00,0.000
689.00,0.000
690.00,0.000
691.00,0.000
692.00,0.001
693.00,0.001
694.00,0.001
695.00,0.001
696.00,0.000
697.00,0.001
698.00,0.001
699.00,0.000
700.00,0.001
701.00,0.001
702.00,0.001
703.00,0.001
704.00,0.000
705.00,0.001
706.00,0.001
707.00,0.001
708.00,0.000
709.00,0.001
710.00,0.000
711.00,0.001
712.00,0.001
713.00,0.001
714.00,0.001
715.00,0.001
716.00,0.001
717.00,0.001
718.00,0.001
719.00,0.001
720.00,0.001
721.00,0.001
722.00,0.001
723.00,0.001
724.00,0.001
725.00,0.001
726.00,0.001
727.00,0.001
728.00,0.001
729.00,0.001
730.00,0.001
731.00,0.001
732.00,0.001
733.00,0.001
734.00,0.001
735.00,0.001
736.00,0.001
737.00,0.001
738.00,0.001
739.00,0.001
740.00,0.001
741.00,0.001
742.00,0.001
743.00,0.001
744.00,0.001
745.00,0.001
746.00,0.001
747.00,0.001
748.00,0.001
749.00,0.001
750.00,0.001
751.00,0.001
752.00,0.001
753.00,0.001
754.00,0.001
755.00,0.001
756.00,0.001
757.00,0.001
758.00,0.001
759.00,0.001
760.00,0.001
761.00,0.001
762.00,0.001
763.00,0.001
764.00,0.001
765.00,0.001
766.00,0.001
767.00,0.000
768.00,0.000
769.00,0.001
770.00,0.000
771.00,0.000
772.00,0.000
773.00,0.000
774.00,0.000
775.00,0.000
776.00,0.000
777.00,0.000
778.00,0.000
779.00,0.000
780.00,0.000
781.00,0.000
782.00,0.000
783.00,0.000
784.00,0.000
785.00,0.000
786.00,0.000
787.00,0.000
788.00,0.000
789.00,0.000
790.00,0.001
791.00,0.001
792.00,0.001
793.00,0.001
794.00,0.001
795.00,0.001
796.00,0.001
797.00,0.001
798.00,0.001
799.00,0.001
800.00,0.001
