"File_240203_070930 - RawData"
"Wavelength nm.","Abs."
200.00,0.152
201.00,0.130
202.00,0.230
203.00,0.131
204.00,0.209
205.00,0.129
206.00,0.251
207.00,0.170
208.00,0.158
209.00,0.202
210.00,0.103
211.00,0.202
212.00,0.219
213.00,0.167
214.00,0.256
215.00,0.157
216.00,0.234
217.00,0.276
218.00,0.254
219.00,0.348
220.00,0.366
221.00,0.359
222.00,0.367
223.00,0.362
224.00,0.362
225.00,0.358
226.00,0.357
227.00,0.352
228.00,0.348
229.00,0.344
230.00,0.339
231.00,0.331
232.00,0.325
233.00,0.318
234.00,0.310
235.00,0.303
236.00,0.297
237.00,0.289
238.00,0.282
239.00,0.275
240.00,0.268
241.00,0.263
242.00,0.257
243.00,0.253
244.00,0.247
245.00,0.245
246.00,0.242
247.00,0.241
248.00,0.241
249.00,0.242
250.00,0.243
251.00,0.245
252.00,0.249
253.00,0.253
254.00,0.260
255.00,0.265
256.00,0.271
257.00,0.277
258.00,0.284
259.00,0.290
260.00,0.297
261.00,0.303
262.00,0.310
263.00,0.312
264.00,0.314
265.00,0.317
266.00,0.317
267.00,0.317
268.00,0.317
269.00,0.315
270.00,0.307
271.00,0.299
272.00,0.290
273.00,0.282
274.00,0.273
275.00,0.261
276.00,0.250
277.00,0.238
278.00,0.227
279.00,0.215
280.00,0.203
281.00,0.191
282.00,0.180
283.00,0.168
284.00,0.158
285.00,0.149
286.00,0.139
287.00,0.130
288.00,0.122
289.00,0.114
290.00,0.105
291.00,0.097
292.00,0.090
293.00,0.082
294.00,0.077
295.00,0.071
296.00,0.065
297.00,0.061
298.00,0.058
299.00,0.054
300.00,0.050
301.00,0.048
302.00,0.044
303.00,0.042
304.00,0.040
305.00,0.038
306.00,0.036
307.00,0.035
308.00,0.032
309.00,0.032
310.00,0.030
311.00,0.029
312.00,0.028
313.00,0.028
314.00,0.027
315.00,0.026
316.00,0.025
317.00,0.025
318.00,0.024
319.00,0.024
320.00,0.022
321.00,0.021
322.00,0.022
323.00,0.020
324.00,0.020
325.00,0.019
326.00,0.019
327.00,0.019
328.00,0.019
329.00,0.018
330.00,0.017
331.00,0.016
332.00,0.016
333.00,0.015
334.00,0.014
335.00,0.013
336.00,0.013
337.00,0.012
338.00,0.011
339.00,0.011
340.00,0.010
341.00,0.010
342.00,0.009
343.00,0.010
344.00,0.009
345.00,0.008
346.00,0.008
347.00,0.007
348.00,0.007
349.00,0.006
350.00,0.007
351.00,0.006
352.00,0.005
353.00,0.005
354.00,0.004
355.00,0.004
356.00,0.005
357.00,0.004
358.00,0.004
359.00,0.004
360.00,0.003
361.00,0.003
362.00,0.003
363.00,0.002
364.00,0.002
365.00,0.002
366.00,0.001
367.00,0.001
368.00,0.001
369.00,0.001
370.00,0.001
371.00,0.001
372.00,0.001
373.00,-0.000
374.00,0.001
375.00,-0.002
376.00,0.000
377.00,0.002
378.00,0.000
379.00,0.002
380.00,0.000
381.00,0.002
382.00,0.003
383.00,0.000
384.00,-0.002
385.00,0.003
386.00,0.001
387.00,-0.000
388.00,-0.000
389.00,0.001
390.00,-0.002
391.00,-0.003
392.00,-0.000
393.00,0.001
394.00,-0.002
395.00,0.001
396.00,-0.001
397.00,-0.003
398.00,0.001
399.00,0.000
400.00,-0.001
401.00,-0.001
402.00,-0.001
403.00,0.000
404.00,-0.002
405.00,-0.000
406.00,-0.001
407.00,-0.003
408.00,-0.001
409.00,-0.003
410.00,-0.002
411.00,-0.001
412.00,-0.001
413.00,-0.002
414.00,-0.002
415.00,-0.002
416.00,-0.001
417.00,-0.003
418.00,-0.002
419.00,-0.002
420.00,-0.003
421.00,-0.002
422.00,-0.001
423.00,-0.002
424.00,-0.001
425.00,-0.003
426.00,-0.003
427.00,-0.003
428.00,-0.003
429.00,-0.003
430.00,-0.003
431.00,-0.003
432.00,-0.004
433.00,-0.003
434.00,-0.004
435.00,-0.003
436.00,-0.003
437.00,-0.003
438.00,-0.003
439.00,-0.003
440.00,-0.003
441.00,-0.003
442.00,-0.004
443.00,-0.004
444.00,-0.003
445.00,-0.003
446.00,-0.003
447.00,-0.004
448.00,-0.003
449.00,-0.003
450.00,-0.004
451.00,-0.003
452.00,-0.004
453.00,-0.003
454.00,-0.003
455.00,-0.004
456.00,-0.004
457.00,-0.003
458.00,-0.004
459.00,-0.004
460.00,-0.003
461.00,-0.004
462.00,-0.004
463.00,-0.003
464.00,-0.003
465.00,-0.003
466.00,-0.004
467.00,-0.004
468.00,-0.004
469.00,-0.004
470.00,-0.003
471.00,-0.003
472.00,-0.003
473.00,-0.003
474.00,-0.003
475.00,-0.003
476.00,-0.003
477.00,-0.003
478.00,-0.004
479.00,-0.004
480.00,-0.004
481.00,-0.004
482.00,-0.003
483.00,-0.004
484.00,-0.004
485.00,-0.003
486.00,-0.004
487.00,-0.003
488.00,-0.004
489.00,-0.003
490.00,-0.004
491.00,-0.004
492.00,-0.004
493.00,-0.004
494.00,-0.003
495.00,-0.004
496.00,-0.004
497.00,-0.004
498.00,-0.003
499.00,-0.004
500.00,-0.004
501.00,-0.004
502.00,-0.004
503.00,-0.004
504.00,-0.003
505.00,-0.003
506.00,-0.004
507.00,-0.004
508.00,-0.003
509.00,-0.004
510.00,-0.004
511.00,-0.004
512.00,-0.004
513.00,-0.003
514.00,-0.004
515.00,-0.004
516.00,-0.004
517.00,-0.004
518.00,-0.004
519.00,-0.004
520.00,-0.004
521.00,-0.003
522.00,-0.004
523.00,-0.004
524.00,-0.003
525.00,-0.004
526.00,-0.004
527.00,-0.004
528.00,-0.003
529.00,-0.003
530.00,-0.003
531.00,-0.004
532.00,-0.004
533.00,-0.004
534.00,-0.004
535.00,-0.003
536.00,-0.003
537.00,-0.003
538.00,-0.004
539.00,-0.004
540.00,-0.004
541.00,-0.003
542.00,-0.004
543.00,-0.003
544.00,-0.004
545.00,-0.003
546.00,-0.004
547.00,-0.003
548.00,-0.003
549.00,-0.003
550.00,-0.003
551.00,-0.003
552.00,-0.004
553.00,-0.003
554.00,-0.003
555.00,-0.003
556.00,-0.003
557.00,-0.003
558.00,-0.003
559.00,-0.003
560.00,-0.003
561.00,-0.004
562.00,-0.003
563.00,-0.003
564.00,-0.003
565.00,-0.003
566.00,-0.003
567.00,-0.003
568.00,-0.003
569.00,-0.003
570.00,-0.003
571.00,-0.003
572.00,-0.003
573.00,-0.003
574.00,-0.003
575.00,-0.003
576.00,-0.003
577.00,-0.003
578.00,-0.004
579.00,-0.003
580.00,-0.003
581.00,-0.003
582.00,-0.003
583.00,-0.003
584.00,-0.003
585.00,-0.003
586.00,-0.003
587.00,-0.004
588.00,-0.003
589.00,-0.003
590.00,-0.003
591.00,-0.003
592.00,-0.003
593.00,-0.003
594.00,-0.003
595.00,-0.003
596.00,-0.003
597.00,-0.003
598.00,-0.003
599.00,-0.003
600.00,-0.003
601.00,-0.003
602.00,-0.003
603.00,-0.003
604.00,-0.003
605.00,-0.003
606.00,-0.003
607.00,-0.003
608.00,-0.003
609.00,-0.003
610.00,-0.003
611.00,-0.003
612.00,-0.003
613.00,-0.003
614.00,-0.003
615.00,-0.003
616.00,-0.003
617.00,-0.003
618.00,-0.003
619.00,-0.003
620.00,-0.003
621.00,-0.003
622.00,-0.003
623.00,-0.003
624.00,-0.003
625.00,-0.003
626.00,-0.003
627.00,-0.003
628.00,-0.003
629.00,-0.003
630.00,-0.003
631.00,-0.003
632.00,-0.003
633.00,-0.003
634.00,-0.003
635.00,-0.003
636.00,-0.003
637.00,-0.003
638.00,-0.003
639.00,-0.003
640.00,-0.003
641.00,-0.003
642.00,-0.003
643.00,-0.003
644.00,-0.003
645.00,-0.003
646.00,-0.003
647.00,-0.003
648.00,-0.003
649.00,-0.003
650.00,-0.003
651.00,-0.003
652.00,-0.003
653.00,-0.003
654.00,-0.003
655.00,-0.003
656.00,-0.003
657.00,-0.003
658.00,-0.003
659.00,-0.003
660.00,-0.003
661.00,-0.003
662.00,-0.003
663.00,-0.003
664.00,-0.003
665.00,-0.003
666.00,-0.003
667.00,-0.003
668.00,-0.003
669.00,-0.003
670.00,-0.003
671.00,-0.003
672.00,-0.003
673.00,-0.003
674.00,-0.003
675.00,-0.003
676.00,-0.003
677.00,-0.003
678.00,-0.003
679.00,-0.003
680.00,-0.003
681.00,-0.003
682.00,-0.003
683.00,-0.003
684.00,-0.003
685.00,-0.003
686.00,-0.003
687.00,-0.003
688.00,-0.003
689.00,-0.003
690.00,-0.003
691.00,-0.003
692.00,-0.003
693.00,-0.003
694.00,-0.003
695.00,-0.003
696.00,-0.003
697.00,-0.003
698.00,-0.003
699.00,-0.003
700.00,-0.003
701.00,-0.003
702.00,-0.003
703.00,-0.003
704.00,-0.003
705.00,-0.003
706.00,-0.003
707.00,-0.003
708.00,-0.003
709.00,-0.003
710.00,-0.003
711.00,-0.003
712.00,-0.003
713.00,-0.003
714.00,-0.003
715.00,-0.003
716.00,-0.003
717.00,-0.003
718.00,-0.003
719.00,-0.003
720.00,-0.003
721.00,-0.003
722.00,-0.003
723.00,-0.003
724.00,-0.003
725.00,-0.003
726.00,-0.003
727.00,-0.003
728.00,-0.003
729.00,-0.003
730.00,-0.003
731.00,-0.003
732.00,-0.003
733.00,-0.003
734.00,-0.003
735.00,-0.003
736.00,-0.003
737.00,-0.003
738.00,-0.003
739.00,-0.003
740.00,-0.003
741.00,-0.003
742.00,-0.003
743.00,-0.003
744.00,-0.003
745.00,-0.003
746.00,-0.003
747.00,-0.003
748.00,-0.003
749.00,-0.003
750.00,-0.003
751.00,-0.003
752.00,-0.003
753.00,-0.003
754.00,-0.003
755.00,-0.003
756.00,-0.003
757.00,-0.003
758.00,-0.003
759.00,-0.003
760.00,-0.003
761.00,-0.003
762.00,-0.003
763.00,-0.003
764.00,-0.003
765.00,-0.003
766.00,-0.003
767.00,-0.003
768.00,-0.003
769.00,-0.003
770.00,-0.003
771.00,-0.003
772.00,-0.003
773.00,-0.003
774.00,-0.003
775.00,-0.003
776.00,-0.003
777.00,-0.003
778.00,-0.003
779.00,-0.003
780.00,-0.003
781.00,-0.003
782.00,-0.003
783.00,-0.003
784.00,-0.003
785.00,-0.003
786.00,-0.003
787.00,-0.003
788.00,-0.003
789.00,-0.003
790.00,-0.003
791.00,-0.003
792.00,-0.003
793.00,-0.003
794.00,-0.003
795.00,-0.003
796.00,-0.003
797.00,-0.003
798.00,-0.003
799.00,-0.003
800.00,-0.002
