"File_240203_070147 - RawData"
"Wavelength nm.","Abs."
200.00,0.048
201.00,0.047
202.00,0.083
203.00,0.014
204.00,0.126
205.00,0.069
206.00,0.146
207.00,0.062
208.00,0.075
209.00,0.102
210.00,0.065
211.00,0.034
212.00,0.078
213.00,0.066
214.00,0.087
215.00,0.056
216.00,0.116
217.00,0.090
218.00,0.096
219.00,0.140
220.00,0.127
221.00,0.093
222.00,0.076
223.00,0.058
224.00,0.049
225.00,0.038
226.00,0.030
227.00,0.023
228.00,0.019
229.00,0.015
230.00,0.013
231.00,0.010
232.00,0.011
233.00,0.014
234.00,0.016
235.00,0.019
236.00,0.025
237.00,0.030
238.00,0.035
239.00,0.040
240.00,0.047
241.00,0.053
242.00,0.060
243.00,0.066
244.00,0.073
245.00,0.081
246.00,0.088
247.00,0.096
248.00,0.105
249.00,0.113
250.00,0.121
251.00,0.130
252.00,0.140
253.00,0.150
254.00,0.161
255.00,0.171
256.00,0.180
257.00,0.188
258.00,0.196
259.00,0.204
260.00,0.213
261.00,0.220
262.00,0.227
263.00,0.229
264.00,0.231
265.00,0.232
266.00,0.231
267.00,0.232
268.00,0.236
269.00,0.235
270.00,0.226
271.00,0.218
272.00,0.211
273.00,0.205
274.00,0.197
275.00,0.189
276.00,0.180
277.00,0.173
278.00,0.164
279.00,0.155
280.00,0.147
281.00,0.138
282.00,0.130
283.00,0.120
284.00,0.114
285.00,0.106
286.00,0.099
287.00,0.091
288.00,0.085
289.00,0.079
290.00,0.073
291.00,0.067
292.00,0.061
293.00,0.056
294.00,0.051
295.00,0.047
296.00,0.043
297.00,0.039
298.00,0.037
299.00,0.034
300.00,0.031
301.00,0.029
302.00,0.027
303.00,0.026
304.00,0.023
305.00,0.022
306.00,0.020
307.00,0.019
308.00,0.018
309.00,0.017
310.00,0.016
311.00,0.016
312.00,0.014
313.00,0.015
314.00,0.014
315.00,0.013
316.00,0.013
317.00,0.012
318.00,0.012
319.00,0.012
320.00,0.010
321.00,0.010
322.00,0.010
323.00,0.009
324.00,0.010
325.00,0.009
326.00,0.008
327.00,0.008
328.00,0.008
329.00,0.007
330.00,0.007
331.00,0.006
332.00,0.006
333.00,0.006
334.00,0.005
335.00,0.004
336.00,0.004
337.00,0.004
338.00,0.003
339.00,0.003
340.00,0.000
341.00,0.001
342.00,0.001
343.00,0.000
344.00,0.001
345.00,0.001
346.00,0.000
347.00,-0.000
348.00,0.000
349.00,-0.001
350.00,-0.000
351.00,-0.001
352.00,-0.002
353.00,-0.002
354.00,-0.002
355.00,-0.003
356.00,-0.001
357.00,-0.002
358.00,-0.002
359.00,-0.003
360.00,-0.003
361.00,-0.003
362.00,-0.003
363.00,-0.003
364.00,-0.003
365.00,-0.004
366.00,-0.004
367.00,-0.003
368.00,-0.005
369.00,-0.004
370.00,-0.004
371.00,-0.004
372.00,-0.004
373.00,-0.005
374.00,-0.004
375.00,-0.001
376.00,0.002
377.00,0.000
378.00,-0.003
379.00,-0.002
380.00,-0.003
381.00,-0.003
382.00,-0.002
383.00,-0.002
384.00,-0.003
385.00,-0.001
386.00,-0.003
387.00,-0.004
388.00,-0.004
389.00,-0.004
390.00,-0.004
391.00,-0.006
392.00,-0.003
393.00,-0.002
394.00,-0.005
395.00,-0.004
396.00,-0.005
397.00,-0.005
398.00,-0.004
399.00,-0.004
400.00,-0.004
401.00,-0.004
402.00,-0.004
403.00,-0.004
404.00,-0.006
405.00,-0.003
406.00,-0.004
407.00,-0.005
408.00,-0.004
409.00,-0.005
410.00,-0.004
411.00,-0.005
412.00,-0.004
413.00,-0.004
414.00,-0.004
415.00,-0.004
416.00,-0.004
417.00,-0.005
418.00,-0.004
419.00,-0.003
420.00,-0.005
421.00,-0.004
422.00,-0.005
423.00,-0.005
424.00,-0.005
425.00,-0.006
426.00,-0.006
427.00,-0.006
428.00,-0.005
429.00,-0.006
430.00,-0.006
431.00,-0.006
432.00,-0.007
433.00,-0.006
434.00,-0.006
435.00,-0.006
436.00,-0.006
437.00,-0.006
438.00,-0.006
439.00,-0.006
440.00,-0.006
441.00,-0.006
442.00,-0.006
443.00,-0.006
444.00,-0.006
445.00,-0.006
446.00,-0.006
447.00,-0.006
448.00,-0.006
449.00,-0.006
450.00,-0.006
451.00,-0.006
452.00,-0.006
453.00,-0.006
454.00,-0.006
455.00,-0.006
456.00,-0.006
457.00,-0.006
458.00,-0.006
459.00,-0.006
460.00,-0.007
461.00,-0.006
462.00,-0.006
463.00,-0.006
464.00,-0.006
465.00,-0.006
466.00,-0.006
467.00,-0.006
468.00,-0.006
469.00,-0.006
470.00,-0.006
471.00,-0.006
472.00,-0.006
473.00,-0.006
474.00,-0.006
475.00,-0.006
476.00,-0.006
477.00,-0.006
478.00,-0.006
479.00,-0.006
480.00,-0.006
481.00,-0.006
482.00,-0.006
483.00,-0.006
484.00,-0.006
485.00,-0.006
486.00,-0.006
487.00,-0.006
488.00,-0.006
489.00,-0.006
490.00,-0.006
491.00,-0.006
492.00,-0.006
493.00,-0.006
494.00,-0.006
495.00,-0.006
496.00,-0.006
497.00,-0.006
498.00,-0.006
499.00,-0.006
500.00,-0.006
501.00,-0.006
502.00,-0.006
503.00,-0.006
504.00,-0.005
505.00,-0.006
506.00,-0.006
507.00,-0.005
508.00,-0.005
509.00,-0.006
510.00,-0.006
511.00,-0.006
512.00,-0.006
513.00,-0.006
514.00,-0.006
515.00,-0.006
516.00,-0.006
517.00,-0.006
518.00,-0.006
519.00,-0.006
520.00,-0.006
521.00,-0.005
522.00,-0.005
523.00,-0.005
524.00,-0.005
525.00,-0.006
526.00,-0.005
527.00,-0.006
528.00,-0.006
529.00,-0.005
530.00,-0.005
531.00,-0.005
532.00,-0.006
533.00,-0.005
534.00,-0.005
535.00,-0.005
536.00,-0.005
537.00,-0.005
538.00,-0.005
539.00,-0.005
540.00,-0.005
541.00,-0.005
542.00,-0.005
543.00,-0.005
544.00,-0.005
545.00,-0.005
546.00,-0.005
547.00,-0.005
548.00,-0.005
549.00,-0.005
550.00,-0.005
551.00,-0.005
552.00,-0.005
553.00,-0.005
554.00,-0.005
555.00,-0.005
556.00,-0.005
557.00,-0.005
558.00,-0.005
559.00,-0.005
560.00,-0.005
561.00,-0.005
562.00,-0.005
563.00,-0.005
564.00,-0.005
565.00,-0.005
566.00,-0.005
567.00,-0.005
568.00,-0.005
569.00,-0.005
570.00,-0.005
571.00,-0.005
572.00,-0.005
573.00,-0.005
574.00,-0.005
575.00,-0.005
576.00,-0.005
577.00,-0.005
578.00,-0.005
579.00,-0.005
580.00,-0.005
581.00,-0.005
582.00,-0.005
583.00,-0.005
584.00,-0.005
585.00,-0.005
586.00,-0.005
587.00,-0.005
588.00,-0.005
589.00,-0.005
590.00,-0.005
591.00,-0.005
592.00,-0.005
593.00,-0.005
594.00,-0.005
595.00,-0.005
596.00,-0.005
597.00,-0.005
598.00,-0.005
599.00,-0.005
600.00,-0.005
601.00,-0.005
602.00,-0.005
603.00,-0.004
604.00,-0.005
605.00,-0.005
606.00,-0.005
607.00,-0.004
608.00,-0.005
609.00,-0.005
610.00,-0.004
611.00,-0.005
612.00,-0.004
613.00,-0.005
614.00,-0.004
615.00,-0.004
616.00,-0.004
617.00,-0.005
618.00,-0.004
619.00,-0.004
620.00,-0.004
621.00,-0.004
622.00,-0.004
623.00,-0.004
624.00,-0.004
625.00,-0.004
626.00,-0.004
627.00,-0.004
628.00,-0.004
629.00,-0.004
630.00,-0.004
631.00,-0.004
632.00,-0.004
633.00,-0.004
634.00,-0.004
635.00,-0.004
636.00,-0.004
637.00,-0.004
638.00,-0.004
639.00,-0.004
640.00,-0.004
641.00,-0.004
642.00,-0.004
643.00,-0.004
644.00,-0.004
645.00,-0.004
646.00,-0.004
647.00,-0.004
648.00,-0.004
649.00,-0.004
650.00,-0.004
651.00,-0.004
652.00,-0.004
653.00,-0.004
654.00,-0.004
655.00,-0.004
656.00,-0.004
657.00,-0.004
658.00,-0.004
659.00,-0.004
660.00,-0.004
661.00,-0.004
662.00,-0.004
663.00,-0.004
664.00,-0.004
665.00,-0.004
666.00,-0.004
667.00,-0.004
668.00,-0.004
669.00,-0.004
670.00,-0.004
671.00,-0.004
672.00,-0.004
673.00,-0.004
674.00,-0.004
675.00,-0.004
676.00,-0.004
677.00,-0.004
678.00,-0.004
679.00,-0.004
680.00,-0.004
681.00,-0.004
682.00,-0.004
683.00,-0.004
684.00,-0.004
685.00,-0.004
686.00,-0.004
687.00,-0.004
688.00,-0.004
689.00,-0.004
690.00,-0.004
691.00,-0.004
692.00,-0.004
693.00,-0.004
694.00,-0.004
695.00,-0.004
696.00,-0.004
697.00,-0.004
698.00,-0.004
699.00,-0.004
700.00,-0.004
701.00,-0.004
702.00,-0.004
703.00,-0.004
704.00,-0.004
705.00,-0.004
706.00,-0.004
707.00,-0.004
708.00,-0.004
709.00,-0.004
710.00,-0.004
711.00,-0.004
712.00,-0.004
713.00,-0.004
714.00,-0.004
715.00,-0.004
716.00,-0.004
717.00,-0.004
718.00,-0.004
719.00,-0.004
720.00,-0.004
721.00,-0.004
722.00,-0.004
723.00,-0.004
724.00,-0.004
725.00,-0.004
726.00,-0.004
727.00,-0.004
728.00,-0.004
729.00,-0.004
730.00,-0.004
731.00,-0.004
732.00,-0.004
733.00,-0.004
734.00,-0.004
735.00,-0.004
736.00,-0.004
737.00,-0.004
738.00,-0.004
739.00,-0.004
740.00,-0.004
741.00,-0.004
742.00,-0.004
743.00,-0.004
744.00,-0.004
745.00,-0.004
746.00,-0.004
747.00,-0.004
748.00,-0.004
749.00,-0.004
750.00,-0.004
751.00,-0.004
752.00,-0.004
753.00,-0.004
754.00,-0.003
755.00,-0.004
756.00,-0.004
757.00,-0.003
758.00,-0.003
759.00,-0.004
760.00,-0.003
761.00,-0.003
762.00,-0.004
763.00,-0.004
764.00,-0.003
765.00,-0.003
766.00,-0.004
767.00,-0.003
768.00,-0.003
769.00,-0.004
770.00,-0.004
771.00,-0.003
772.00,-0.003
773.00,-0.003
774.00,-0.003
775.00,-0.003
776.00,-0.003
777.00,-0.003
778.00,-0.003
779.00,-0.003
780.00,-0.003
781.00,-0.003
782.00,-0.003
783.00,-0.003
784.00,-0.003
785.00,-0.003
786.00,-0.003
787.00,-0.003
788.00,-0.003
789.00,-0.003
790.00,-0.003
791.00,-0.003
792.00,-0.003
793.00,-0.003
794.00,-0.003
795.00,-0.003
796.00,-0.003
797.00,-0.003
798.00,-0.003
799.00,-0.003
800.00,-0.003
